Time,FZ,C3,CZ,C4,PZ,PO7,OZ,PO8,AccX,AccY,AccZ,Gyro1,Gyro2,Gyro3,Battery,Counter,Validation
5688.8132448,63587.67578125,63677.44140625,64272.7109375,63859.7421875,63807.2578125,63878.96484375,64066.62890625,64177.94140625,0.487548828125,0.80859375,0.33837890625,-1.9836424589157104,-0.2136230319738388,0.6713866591453552,80.0,804.0,1.0
5688.8163109,62408.84375,62497.8046875,63091.734375,62679.48046875,62627.53515625,62698.97265625,62886.81640625,62998.21484375,0.4873046875,0.8095703125,0.337646484375,-2.014159917831421,-0.1525878757238388,0.6713866591453552,80.0,805.0,1.0
5688.8163195,63076.53515625,63165.85546875,63759.78515625,63347.70703125,63295.4921875,63367.109375,63554.7734375,63666.0859375,0.485595703125,0.81005859375,0.336181640625,-2.014159917831421,-0.1220703050494194,0.7324218153953552,80.0,806.0,1.0
5688.8181723,64453.13671875,64542.98828125,65138.6171875,64725.55859375,64672.5390625,64744.421875,64932.08984375,65043.7578125,0.488037109375,0.808349609375,0.33447265625,-2.014159917831421,-0.1220703050494194,0.8850097060203552,80.0,807.0,1.0
5688.8244993,64135.47265625,64225.328125,64820.77734375,64407.8046875,64354.96875,64426.671875,64614.24609375,64726.36328125,0.486572265625,0.809814453125,0.337158203125,-2.075195074081421,-0.1831054538488388,0.7934569716453552,80.0,808.0,1.0
5688.8270009,62826.46484375,62915.87109375,63510.16015625,63097.90625,63045.6015625,63116.859375,63304.8828125,63416.640625,0.487060546875,0.810302734375,0.336669921875,-2.014159917831421,-0.2441406100988388,0.7629393935203552,80.0,809.0,1.0
5688.8307556,63140.73046875,63230.31640625,63824.6953125,63412.08203125,63359.8671875,63431.21484375,63619.23828125,63731.0859375,0.486083984375,0.80859375,0.33544921875,-2.075195074081421,-0.2746581733226776,0.7629393935203552,80.0,810.0,1.0
5688.8400802,64604.4140625,64694.4453125,65290.34375,64877.10546875,64824.44140625,64896.05859375,65083.8125,65195.48046875,0.486572265625,0.81103515625,0.332275390625,-1.9836424589157104,-0.2136230319738388,0.7934569716453552,80.0,811.0,1.0
5688.8400874,64643.125,64732.7109375,65328.87890625,64915.63671875,64862.796875,64934.76953125,65121.8984375,65233.75,0.486572265625,0.81005859375,0.33349609375,-2.014159917831421,-0.3051757514476776,0.7934569716453552,80.0,812.0,1.0
5688.8419956,63296.12109375,63385.34765625,63980.3515625,63567.37890625,63515.5234375,63587.23046875,63774.26953125,63886.20703125,0.485595703125,0.80908203125,0.3349609375,-1.9226073026657104,-0.2136230319738388,0.7324218153953552,80.0,813.0,1.0
5688.8507582,63242.296875,63331.5234375,63926.52734375,63513.55859375,63461.43359375,63533.49609375,63720.8046875,63832.47265625,0.4853515625,0.808837890625,0.3330078125,-2.014159917831421,-0.2136230319738388,0.7934569716453552,80.0,814.0,1.0
5688.8687559,64709.64453125,64799.41015625,65395.75390625,64982.06640625,64929.2265625,65001.55859375,65188.95703125,65300.53515625,0.48583984375,0.81005859375,0.3359375,-1.9226073026657104,-0.2136230319738388,0.7934569716453552,80.0,815.0,1.0
5688.8687633,65102.67578125,65192.3515625,65788.6953125,65375.1015625,65322.171875,65394.6796875,65581.71875,65693.75,0.4873046875,0.812744140625,0.3330078125,-1.8920897245407104,-0.1831054538488388,0.7629393935203552,80.0,816.0,1.0
5688.8687661,63814.0546875,63903.28125,64498.1953125,64085.2265625,64033.19140625,64105.1640625,64292.0234375,64404.140625,0.48681640625,0.810546875,0.33447265625,-1.9226073026657104,-0.2136230319738388,0.7019042372703552,80.0,817.0,1.0
5688.8687683,63403.3203125,63492.546875,64087.4609375,63674.1328125,63622.27734375,63694.0703125,63881.55859375,63993.58203125,0.48681640625,0.8095703125,0.333740234375,-1.9836424589157104,-0.1220703050494194,0.6408690810203552,80.0,818.0,1.0
5688.8707449,64774.375,64864.140625,65460.21484375,65046.3515625,64993.78125,65066.2890625,65253.41796875,65365.4453125,0.486572265625,0.810302734375,0.33544921875,-1.9836424589157104,-0.2136230319738388,0.6713866591453552,80.0,819.0,1.0
5688.8732499,65492.22265625,65582.6171875,66179.046875,65765.09375,65711.984375,65784.765625,65971.7109375,66083.5625,0.48681640625,0.809326171875,0.3349609375,-1.9531248807907104,-0.1525878757238388,0.7934569716453552,80.0,820.0,1.0
5688.8757503,64356.84375,64446.69921875,65042.41796875,64629.0,64576.25,64648.48828125,64835.796875,64947.46875,0.4853515625,0.809814453125,0.33544921875,-2.044677495956421,-0.1831054538488388,0.7019042372703552,80.0,821.0,1.0
5688.8782559,63621.828125,63711.86328125,64306.77734375,63893.71484375,63841.59375,63913.4765625,64100.9609375,64212.18359375,0.4873046875,0.81005859375,0.3330078125,-2.044677495956421,-0.1525878757238388,0.7019042372703552,80.0,822.0,1.0
5688.8919967,64815.0546875,64905.71484375,65501.43359375,65087.65625,65034.90625,65107.41796875,65294.72265625,65406.03515625,0.48583984375,0.8115234375,0.333984375,-1.9226073026657104,-0.2441406100988388,0.6713866591453552,80.0,823.0,1.0
5688.8956721,65825.3515625,65916.015625,66512.890625,66098.9375,66045.65625,66118.0703125,66305.5625,66416.9609375,0.48583984375,0.8115234375,0.334228515625,-1.9531248807907104,-0.2136230319738388,0.8544921278953552,80.0,824.0,1.0
5688.8956777,64921.44921875,65011.66015625,65608.0078125,65194.67578125,65141.48046875,65213.36328125,65401.20703125,65512.7890625,0.48583984375,0.80908203125,0.336181640625,-1.9531248807907104,-0.2746581733226776,0.7324218153953552,80.0,825.0,1.0
5688.8956804,63914.1015625,64003.8671875,64599.5859375,64186.43359375,64133.953125,64205.30078125,64393.41015625,64504.8125,0.48486328125,0.810302734375,0.335205078125,-1.8920897245407104,-0.1831054538488388,0.7019042372703552,80.0,826.0,1.0
5688.8982405,64846.6171875,64936.55859375,65533.3515625,65119.30859375,65066.46875,65138.44140625,65326.1953125,65437.86328125,0.486572265625,0.8115234375,0.334228515625,-1.8310545682907104,-0.1831054538488388,0.7019042372703552,80.0,827.0,1.0
5688.9007512,66081.953125,66172.34375,66770.1171875,66355.5390625,66301.890625,66374.578125,66561.890625,66673.6484375,0.486083984375,0.810791015625,0.332763671875,-1.9226073026657104,-0.1525878757238388,0.7629393935203552,80.0,828.0,1.0
5688.9145625,65477.0234375,65566.96875,66164.203125,65750.0703125,65696.609375,65768.9375,65956.2421875,66068.09375,0.486572265625,0.8115234375,0.334228515625,-1.9836424589157104,-0.1220703050494194,0.8544921278953552,80.0,829.0,1.0
5688.9174362,64271.1015625,64360.77734375,64956.765625,64543.16796875,64490.6875,64562.66015625,64749.96875,64861.546875,0.48876953125,0.810791015625,0.3369140625,-1.9531248807907104,-0.2136230319738388,0.7324218153953552,80.0,830.0,1.0
5688.9174424,64887.83203125,64977.77734375,65574.296875,65160.16796875,65107.50390625,65179.56640625,65367.0546875,65478.72265625,0.487548828125,0.80908203125,0.335205078125,-1.8920897245407104,-0.1831054538488388,0.7629393935203552,80.0,831.0,1.0
5688.924508,66279.5390625,66370.203125,66967.7109375,66553.0390625,66499.390625,66571.90625,66759.8359375,66871.0546875,0.485595703125,0.81103515625,0.3349609375,-1.9836424589157104,-0.1525878757238388,0.7629393935203552,80.0,832.0,1.0
5688.9270153,66012.125,66102.4296875,66699.9296875,66285.7109375,66231.9765625,66304.3984375,66491.796875,66603.4609375,0.486328125,0.81103515625,0.334228515625,-1.8920897245407104,-0.2136230319738388,0.7324218153953552,80.0,833.0,1.0
5688.9295021,64689.2578125,64778.84375,65375.3671875,64961.68359375,64908.93359375,64980.7265625,65167.765625,65279.8828125,0.48583984375,0.808837890625,0.3330078125,-1.9836424589157104,-0.2441406100988388,0.7629393935203552,80.0,834.0,1.0
5688.9438353,64950.23828125,65040.359375,65636.6171875,65222.9296875,65169.734375,65241.97265625,65429.1015625,65541.3984375,0.48779296875,0.8125,0.332275390625,-1.8920897245407104,-0.2136230319738388,0.7019042372703552,80.0,835.0,1.0
5688.9438427,66415.171875,66506.1015625,67103.6953125,66689.203125,66635.2890625,66707.9765625,66895.46875,67007.4921875,0.487060546875,0.810302734375,0.334228515625,-1.9226073026657104,-0.2746581733226776,0.7019042372703552,80.0,836.0,1.0
5688.9457473,66506.1875,66597.203125,67194.8046875,66779.953125,66726.3046875,66798.8203125,66986.3046875,67098.421875,0.487548828125,0.81005859375,0.337158203125,-1.9531248807907104,-0.0915527269244194,0.7934569716453552,80.0,837.0,1.0
5688.9488498,65163.02734375,65253.1484375,65849.9375,65435.98828125,65382.7890625,65454.94140625,65642.4296875,65754.2734375,0.488525390625,0.810791015625,0.33642578125,-1.9836424589157104,-0.1831054538488388,0.8239745497703552,80.0,838.0,1.0
5688.9488569,65052.1640625,65142.46484375,65739.078125,65325.12109375,65271.8359375,65344.078125,65531.83203125,65643.234375,0.485107421875,0.810546875,0.3359375,-1.9531248807907104,-0.0610351525247097,0.6713866591453552,80.0,839.0,1.0
5688.9507544,66505.7421875,66596.578125,67194.3515625,66780.0390625,66725.859375,66798.7265625,66986.2109375,67097.6171875,0.484130859375,0.810302734375,0.33447265625,-2.014159917831421,-0.1525878757238388,0.7324218153953552,80.0,840.0,1.0
5688.9595049,66949.375,67040.125,67638.4375,67223.59375,67169.3203125,67242.1875,67429.671875,67541.609375,0.486572265625,0.81103515625,0.333251953125,-2.014159917831421,-0.1220703050494194,0.8850097060203552,80.0,841.0,1.0
5688.9688249,65675.328125,65765.453125,66362.6875,65948.5546875,65895.09375,65967.5078125,66154.8203125,66266.578125,0.486572265625,0.810302734375,0.3330078125,-2.014159917831421,-0.1831054538488388,0.7934569716453552,80.0,842.0,1.0
5688.9688338,65209.0703125,65299.37109375,65895.984375,65482.390625,65429.28125,65501.43359375,65688.6484375,65800.3203125,0.48681640625,0.811279296875,0.33544921875,-1.9836424589157104,-0.2136230319738388,0.7324218153953552,80.0,843.0,1.0
5688.9713877,66558.578125,66648.96875,67247.1015625,66832.8828125,66778.609375,66851.4765625,67039.0546875,67150.546875,0.487060546875,0.810302734375,0.33251953125,-1.9226073026657104,-0.2136230319738388,0.6713866591453552,80.0,844.0,1.0
5688.971394,67326.5,67417.0703125,68016.1796875,67600.9765625,67546.6171875,67619.484375,67807.2421875,67918.7265625,0.486328125,0.810302734375,0.334228515625,-1.8920897245407104,-0.2441406100988388,0.7019042372703552,80.0,845.0,1.0
5688.9732519,66219.1953125,66309.5859375,66907.265625,66492.953125,66439.21875,66511.5546875,66699.0390625,66810.6171875,0.486083984375,0.809326171875,0.331787109375,-2.014159917831421,-0.3051757514476776,0.7019042372703552,80.0,846.0,1.0
5688.9875741,65433.6640625,65524.05078125,66120.84375,65706.796875,65653.421875,65725.6640625,65913.1484375,66024.4609375,0.48681640625,0.808837890625,0.335205078125,-1.9226073026657104,-0.2441406100988388,0.7019042372703552,80.0,847.0,1.0
5688.9875813,66591.9296875,66682.40625,67280.2734375,66865.515625,66811.515625,66884.109375,67071.8671875,67183.4453125,0.48681640625,0.808837890625,0.335205078125,-1.9531248807907104,-0.3051757514476776,0.7934569716453552,80.0,848.0,1.0
5688.9894979,67637.09375,67728.3828125,68327.3203125,67911.9375,67857.3046875,67930.3515625,68117.9296875,68229.7734375,0.485107421875,0.81005859375,0.33447265625,-1.9226073026657104,-0.1220703050494194,0.7324218153953552,80.0,849.0,1.0
5688.9919966,66771.90625,66862.4765625,67460.7890625,67046.3828125,66992.0234375,67064.7109375,67252.46875,67363.9609375,0.4873046875,0.81298828125,0.33447265625,-2.075195074081421,-0.1831054538488388,0.8239745497703552,80.0,850.0,1.0
5688.9945055,65726.734375,65817.0390625,66414.3671875,66000.59375,65946.859375,66019.1015625,66206.8515625,66317.984375,0.486083984375,0.812255859375,0.337646484375,-2.014159917831421,-0.2136230319738388,0.8239745497703552,80.0,851.0,1.0
5689.0007455,66616.515625,66707.265625,67305.0390625,66890.640625,66836.546875,66909.0546875,67096.9921875,67208.3046875,0.4873046875,0.811279296875,0.336669921875,-1.9836424589157104,-0.2441406100988388,0.7629393935203552,80.0,852.0,1.0
5689.0100825,67877.6875,67968.6171875,68568.09375,68152.8828125,68098.078125,68171.2109375,68358.96875,68470.8203125,0.48583984375,0.810302734375,0.336181640625,-2.014159917831421,-0.2441406100988388,0.7629393935203552,80.0,853.0,1.0
5689.0100895,67321.7578125,67412.2421875,68010.8203125,67596.4140625,67541.875,67614.7421875,67802.5859375,67913.71875,0.486572265625,0.81103515625,0.333984375,-1.9531248807907104,-0.0915527269244194,0.7324218153953552,80.0,854.0,1.0
5689.0125901,66087.765625,66178.0625,66775.125,66361.4375,66307.6171875,66379.859375,66567.7890625,66678.65625,0.484375,0.8095703125,0.332763671875,-2.014159917831421,-0.1831054538488388,0.7019042372703552,80.0,855.0,1.0
5689.0125966,66648.5234375,66739.2734375,67336.78125,66922.6484375,66868.46875,66941.0625,67128.90625,67240.1328125,0.487060546875,0.808837890625,0.334228515625,-1.9531248807907104,-0.1525878757238388,0.6408690810203552,80.0,856.0,1.0
5689.0157375,68054.359375,68145.9140625,68745.03125,68329.375,68274.65625,68347.96875,68535.640625,68647.125,0.486572265625,0.809814453125,0.339599609375,-1.9531248807907104,-0.1831054538488388,0.6408690810203552,80.0,857.0,1.0
5689.0269995,67842.2890625,67933.390625,68532.1484375,68116.8515625,68062.2265625,68135.8125,68323.1171875,68434.609375,0.48779296875,0.81005859375,0.33642578125,-1.9531248807907104,-0.1831054538488388,0.6713866591453552,80.0,858.0,1.0
5689.0300741,66506.28125,66596.9375,67194.3515625,66780.0390625,66726.0390625,66798.546875,66986.390625,67097.796875,0.48828125,0.810302734375,0.335693359375,-1.9226073026657104,-0.2136230319738388,0.6713866591453552,80.0,859.0,1.0
5689.0300798,66707.3515625,66798.015625,67395.96875,66980.9375,66927.1171875,66999.7109375,67187.203125,67299.046875,0.48828125,0.81103515625,0.33740234375,-1.9531248807907104,-0.1831054538488388,0.8544921278953552,80.0,860.0,1.0
5689.0320058,68174.8828125,68265.984375,68865.640625,68449.8046875,68395.0859375,68468.40625,68655.890625,68767.5625,0.4892578125,0.810791015625,0.334716796875,-2.014159917831421,-0.2441406100988388,0.8239745497703552,80.0,861.0,1.0
5689.0457538,68321.2421875,68412.5234375,69012.0859375,68596.609375,68541.09375,68614.765625,68802.515625,68914.1875,0.48681640625,0.809814453125,0.33203125,-2.044677495956421,-0.2136230319738388,0.7629393935203552,80.0,862.0,1.0
5689.0488234,66980.046875,67070.6171875,67668.75,67254.2578125,67199.5390625,67272.765625,67460.609375,67572.1015625,0.48583984375,0.810546875,0.333984375,-2.014159917831421,-0.2136230319738388,0.7019042372703552,80.0,863.0,1.0
5689.0488284,66812.8515625,66902.9765625,67501.375,67086.796875,67032.078125,67105.125,67292.703125,67404.1953125,0.486572265625,0.80859375,0.3349609375,-1.8920897245407104,-0.0915527269244194,0.6408690810203552,80.0,864.0,1.0
5689.0507386,68254.09375,68344.75,68944.4921875,68529.46875,68474.2109375,68547.53125,68735.015625,68846.7734375,0.4873046875,0.80810546875,0.3330078125,-1.9531248807907104,-0.1220703050494194,0.6713866591453552,80.0,865.0,1.0
5689.0545036,68745.1171875,68836.1328125,69436.4140625,69020.7578125,68965.5078125,69038.7265625,69226.578125,69338.15625,0.485595703125,0.809814453125,0.335205078125,-1.9531248807907104,-0.3051757514476776,0.6713866591453552,80.0,866.0,1.0
5689.0582368,67491.1875,67581.6640625,68180.78125,67765.75,67711.125,67784.171875,67971.75,68083.6875,0.48388671875,0.81103515625,0.333984375,-1.9836424589157104,-0.1831054538488388,0.7019042372703552,80.0,867.0,1.0
5689.072577,66972.359375,67062.75,67660.7890625,67246.03125,67191.7578125,67265.25,67452.3828125,67564.0546875,0.487060546875,0.808349609375,0.333740234375,-1.8920897245407104,-0.1525878757238388,0.7629393935203552,80.0,868.0,1.0
5689.0725823,68296.5625,68387.7578125,68987.140625,68571.4921875,68516.6796875,68590.171875,68777.484375,68889.5078125,0.48681640625,0.809326171875,0.336669921875,-1.9531248807907104,-0.2136230319738388,0.8850097060203552,80.0,869.0,1.0
5689.0750706,69106.59375,69198.0546875,69798.5078125,69381.9609375,69326.9765625,69400.828125,69588.046875,69700.1640625,0.488037109375,0.811767578125,0.33544921875,-1.9836424589157104,-0.2746581733226776,0.7324218153953552,80.0,870.0,1.0
5689.0750761,68029.6796875,68121.328125,68720.7109375,68304.7890625,68250.25,68324.0078125,68511.140625,68622.8984375,0.485107421875,0.808349609375,0.3349609375,-2.014159917831421,-0.1220703050494194,0.6408690810203552,80.0,871.0,1.0
5689.0769916,67198.2890625,67289.484375,67887.8828125,67473.0390625,67418.5,67491.71875,67678.7578125,67790.6953125,0.486572265625,0.80859375,0.338134765625,-1.9836424589157104,-0.1525878757238388,0.6713866591453552,80.0,872.0,1.0
5689.0857486,68316.859375,68407.9609375,69007.4375,68592.0546875,68537.25,68610.828125,68797.9609375,68909.625,0.486572265625,0.81103515625,0.33447265625,-1.8920897245407104,-0.1831054538488388,0.7629393935203552,80.0,873.0,1.0
5689.0901587,69397.4296875,69488.5390625,70089.171875,69673.0703125,69618.0,69692.1171875,69878.9765625,69990.734375,0.48681640625,0.8095703125,0.33447265625,-1.9226073026657104,-0.3051757514476776,0.7019042372703552,80.0,874.0,1.0
5689.0901652,68577.125,68668.2265625,69268.328125,68852.5859375,68797.6875,68871.453125,69058.4921875,69169.9765625,0.4873046875,0.810302734375,0.33642578125,-1.9531248807907104,-0.2136230319738388,0.7019042372703552,80.0,875.0,1.0
5689.0982519,67493.8671875,67585.0625,68183.8203125,67768.6171875,67714.078125,67787.390625,67974.96875,68086.0078125,0.48828125,0.811767578125,0.337158203125,-2.014159917831421,-0.2136230319738388,0.7629393935203552,80.0,876.0,1.0
5689.1025752,68332.953125,68424.0546875,69023.796875,68608.0546875,68553.34375,68627.1015625,68814.140625,68925.71875,0.485595703125,0.8115234375,0.336181640625,-1.9531248807907104,-0.1525878757238388,0.7324218153953552,80.0,877.0,1.0
5689.1025802,69621.484375,69713.125,70313.765625,69897.21875,69841.875,69916.078125,70103.1171875,70214.96875,0.4873046875,0.81103515625,0.333984375,-2.014159917831421,-0.1220703050494194,0.7324218153953552,80.0,878.0,1.0
5689.1163287,69114.9921875,69206.1875,69806.828125,69390.8125,69335.1171875,69408.7890625,69596.2734375,69708.4765625,0.486572265625,0.81005859375,0.33447265625,-1.9836424589157104,-0.1525878757238388,0.7019042372703552,80.0,879.0,1.0
5689.1163337,67856.234375,67947.3359375,68546.90625,68131.515625,68076.796875,68149.6640625,68337.15625,68448.8203125,0.486328125,0.808837890625,0.333251953125,-1.9531248807907104,-0.1525878757238388,0.7324218153953552,80.0,880.0,1.0
5689.1182365,68362.3671875,68453.46875,69053.75,68638.1015625,68582.84375,68656.15625,68844.09375,68955.671875,0.485107421875,0.807861328125,0.332763671875,-1.9226073026657104,-0.2136230319738388,0.7324218153953552,80.0,881.0,1.0
5689.120749,69784.921875,69876.4765625,70477.9140625,70061.0078125,70005.578125,70079.7890625,70267.453125,70379.1171875,0.48388671875,0.81005859375,0.334716796875,-1.9226073026657104,-0.2136230319738388,0.6713866591453552,80.0,882.0,1.0
5689.1232265,69625.0625,69716.34375,70317.7890625,69900.703125,69845.8984375,69919.8359375,70107.0546875,70218.8125,0.48486328125,0.81005859375,0.334228515625,-1.9836424589157104,-0.1220703050494194,0.7324218153953552,80.0,883.0,1.0
5689.1325806,68280.203125,68370.7734375,68970.78125,68555.21875,68500.5859375,68573.90625,68761.390625,68873.0625,0.48583984375,0.810791015625,0.337890625,-1.9226073026657104,-0.2136230319738388,0.7019042372703552,80.0,884.0,1.0
5689.1325875,68423.5234375,68514.4453125,69114.4609375,68698.984375,68643.8203125,68717.3984375,68905.0703125,69016.5546875,0.487060546875,0.811767578125,0.33447265625,-1.9531248807907104,-0.3356933295726776,0.7629393935203552,80.0,885.0,1.0
5689.1344966,69894.625,69985.90625,70587.3515625,70170.9765625,70115.28125,70189.21875,70376.9765625,70488.5546875,0.485595703125,0.810546875,0.33740234375,-1.9836424589157104,-0.2136230319738388,0.7629393935203552,80.0,886.0,1.0
5689.1369936,70091.5,70183.140625,70784.4921875,70368.03125,70312.3359375,70386.453125,70574.0234375,70685.7890625,0.4853515625,0.8095703125,0.3369140625,-2.014159917831421,-0.2746581733226776,0.7324218153953552,80.0,887.0,1.0
5689.1482493,68754.234375,68845.5234375,69445.3515625,69029.609375,68974.4453125,69048.2109375,69235.4296875,69347.453125,0.484130859375,0.809814453125,0.334716796875,-1.9836424589157104,-0.1831054538488388,0.7629393935203552,80.0,888.0,1.0
5689.1513253,68529.828125,68621.109375,69221.03125,68805.203125,68750.3046875,68823.9765625,69011.28125,69123.21875,0.4853515625,0.809326171875,0.332763671875,-2.044677495956421,-0.0915527269244194,0.6713866591453552,80.0,889.0,1.0
5689.1513301,69962.84375,70054.484375,70656.015625,70239.375,70183.8515625,70257.6171875,70445.1953125,70557.1328125,0.486083984375,0.8095703125,0.33154296875,-1.9226073026657104,-0.2136230319738388,0.7629393935203552,80.0,890.0,1.0
5689.1532447,70503.125,70594.9453125,71196.75,70780.0234375,70724.0546875,70797.8125,70985.8359375,71097.6875,0.48779296875,0.81103515625,0.332275390625,-1.9836424589157104,-0.1831054538488388,0.8239745497703552,80.0,891.0,1.0
5689.1594951,69268.4140625,69359.7890625,69960.609375,69544.4140625,69489.25,69562.921875,69750.5,69862.171875,0.488037109375,0.810791015625,0.335205078125,-2.044677495956421,-0.2136230319738388,0.7324218153953552,80.0,892.0,1.0
5689.1638293,68696.8359375,68788.65625,69388.4921875,68972.8359375,68917.671875,68991.078125,69178.7421875,69290.6796875,0.48583984375,0.809814453125,0.3330078125,-2.014159917831421,-0.3051757514476776,0.7934569716453552,80.0,893.0,1.0
5689.163837,69993.421875,70085.328125,70686.859375,70270.1328125,70214.25,70288.546875,70475.9453125,70588.0625,0.485107421875,0.8095703125,0.33349609375,-2.044677495956421,-0.3051757514476776,0.8544921278953552,80.0,894.0,1.0
5689.176991,70843.9453125,70935.765625,71538.015625,71120.6640625,71064.78125,71139.171875,71326.390625,71438.328125,0.486328125,0.8095703125,0.33544921875,-1.8920897245407104,-0.2441406100988388,0.7934569716453552,80.0,895.0,1.0
5689.1800679,69801.015625,69892.390625,70493.828125,70077.1015625,70021.4921875,70095.4296875,70283.0078125,70394.859375,0.487060546875,0.808349609375,0.335205078125,-1.8615721464157104,-0.1831054538488388,0.7629393935203552,80.0,896.0,1.0
5689.180073,68929.296875,69020.3125,69620.7734375,69204.671875,69149.6875,69222.90625,69410.9296875,69522.6875,0.4853515625,0.808837890625,0.33544921875,-1.8920897245407104,-0.0915527269244194,0.7934569716453552,80.0,897.0,1.0
5689.1819882,70010.140625,70101.6015625,70703.0390625,70286.2265625,70230.8828125,70304.8203125,70492.3125,70604.3359375,0.48779296875,0.808837890625,0.33447265625,-1.8310545682907104,-0.1831054538488388,0.6713866591453552,80.0,898.0,1.0
5689.1857471,71120.84375,71212.6640625,71814.7265625,71397.2890625,71341.765625,71416.6015625,71603.640625,71715.6640625,0.4853515625,0.810791015625,0.336669921875,-1.8005369901657104,-0.1220703050494194,0.6103515028953552,80.0,899.0,1.0
5689.1945014,70342.28125,70433.5703125,71035.3671875,70618.375,70562.9375,70636.8828125,70824.453125,70936.484375,0.486083984375,0.808349609375,0.334716796875,-1.9226073026657104,-0.1831054538488388,0.6103515028953552,80.0,900.0,1.0
5689.1975701,69229.5234375,69320.6328125,69921.265625,69505.078125,69449.8203125,69523.3125,69711.25,69823.1015625,0.487548828125,0.809814453125,0.3369140625,-1.8920897245407104,-0.2746581733226776,0.7629393935203552,80.0,901.0,1.0
5689.1975764,70020.953125,70112.5078125,70713.6796875,70296.7734375,70241.609375,70315.28125,70503.0390625,70615.0625,0.487060546875,0.80859375,0.3330078125,-1.9226073026657104,-0.1525878757238388,0.7324218153953552,80.0,902.0,1.0
5689.2032388,71331.21875,71423.3046875,72025.4609375,71607.9296875,71552.046875,71626.171875,71814.015625,71926.484375,0.487548828125,0.81005859375,0.337158203125,-1.9226073026657104,-0.1220703050494194,0.7934569716453552,80.0,903.0,1.0
5689.2100737,70868.0859375,70959.8203125,71561.8828125,71144.8046875,71088.7421875,71163.1328125,71350.6171875,71463.09375,0.486328125,0.810791015625,0.337158203125,-2.014159917831421,-0.1831054538488388,0.7629393935203552,80.0,904.0,1.0
5689.2100795,69593.0546875,69684.609375,70285.78125,69869.140625,69813.796875,69887.3828125,70075.3125,70187.1640625,0.4873046875,0.811279296875,0.33642578125,-2.075195074081421,-0.1220703050494194,0.7324218153953552,80.0,905.0,1.0
5689.2182369,70047.1484375,70138.703125,70739.96875,70323.2421875,70267.984375,70341.65625,70529.6796875,70641.3515625,0.487060546875,0.811279296875,0.333251953125,-2.105712652206421,-0.1831054538488388,0.8544921278953552,80.0,906.0,1.0
5689.2225681,71478.5546875,71570.375,72172.984375,71755.2734375,71699.484375,71773.8671875,71961.4453125,72073.46875,0.484375,0.808837890625,0.3349609375,-2.136230230331421,-0.1831054538488388,0.7324218153953552,80.0,907.0,1.0
5689.2225751,71368.140625,71460.40625,72062.3828125,71644.8515625,71588.8828125,71663.453125,71851.203125,71962.9609375,0.485595703125,0.811279296875,0.3349609375,-2.075195074081421,-0.1831054538488388,0.7629393935203552,80.0,908.0,1.0
5689.2313341,70019.1640625,70111.2578125,70712.25,70295.34375,70239.8203125,70313.8515625,70501.875,70613.453125,0.486083984375,0.8115234375,0.333740234375,-1.9836424589157104,-0.1831054538488388,0.7934569716453552,80.0,909.0,1.0
5689.2313385,70104.1015625,70195.8359375,70797.1875,70380.28125,70324.7578125,70398.875,70586.6328125,70698.484375,0.486572265625,0.810546875,0.333740234375,-1.9226073026657104,-0.1220703050494194,0.7934569716453552,80.0,910.0,1.0
5689.2370056,71572.6171875,71664.703125,72267.6640625,71849.6875,71793.8984375,71868.375,72055.765625,72168.0625,0.487548828125,0.811279296875,0.338134765625,-1.9836424589157104,-0.0915527269244194,0.7629393935203552,80.0,911.0,1.0
5689.2394965,71817.765625,71910.0390625,72512.90625,72094.75,72039.140625,72113.703125,72300.921875,72413.6640625,0.488037109375,0.81005859375,0.337890625,-1.8920897245407104,-0.1220703050494194,0.7934569716453552,80.0,912.0,1.0
5689.2419909,70489.71875,70581.625,71183.25,70765.890625,70710.640625,70784.578125,70972.0703125,71084.1796875,0.489013671875,0.808349609375,0.336181640625,-1.9836424589157104,-0.0915527269244194,0.7324218153953552,80.0,913.0,1.0
5689.2507507,70210.140625,70302.140625,70903.578125,70486.3203125,70430.8828125,70505.0078125,70692.7578125,70804.515625,0.4873046875,0.80908203125,0.33642578125,-2.014159917831421,-0.0610351525247097,0.8850097060203552,80.0,914.0,1.0
5689.2538224,71624.5625,71717.0078125,72319.5234375,71901.359375,71845.6640625,71920.2265625,72107.625,72219.7421875,0.486572265625,0.810302734375,0.338134765625,-2.014159917831421,-0.2136230319738388,0.7324218153953552,80.0,915.0,1.0
5689.2538276,72210.4453125,72302.9765625,72905.9375,72487.78125,72431.7265625,72506.203125,72694.046875,72806.0703125,0.485595703125,0.811279296875,0.33740234375,-1.9836424589157104,-0.1831054538488388,0.7324218153953552,80.0,916.0,1.0
5689.2557496,70998.6171875,71090.796875,71692.7734375,71275.3359375,71219.453125,71293.578125,71481.2421875,71593.359375,0.484619140625,0.81103515625,0.339111328125,-2.044677495956421,-0.2136230319738388,0.6713866591453552,80.0,917.0,1.0
5689.2700728,70378.40625,70470.1328125,71071.9375,70654.671875,70599.0625,70673.0,70860.7578125,70972.6015625,0.48583984375,0.8115234375,0.3359375,-1.9531248807907104,-0.2441406100988388,0.6713866591453552,80.0,918.0,1.0
5689.2700799,71646.109375,71738.109375,72341.3359375,71923.0859375,71867.390625,71941.59375,72129.53125,72241.375,0.484619140625,0.810546875,0.334716796875,-1.8615721464157104,-0.2136230319738388,0.7019042372703552,80.0,919.0,1.0
5689.2719825,72538.03125,72630.65625,73234.2421875,72815.90625,72759.4921875,72834.6796875,73022.078125,73134.109375,0.4853515625,0.810302734375,0.333984375,-1.9531248807907104,-0.2746581733226776,0.6408690810203552,80.0,920.0,1.0
5689.275742,71525.8515625,71618.5703125,72220.9921875,71803.375,71747.40625,71821.703125,72009.3671875,72121.484375,0.48486328125,0.810546875,0.3330078125,-1.9226073026657104,-0.1525878757238388,0.7324218153953552,80.0,921.0,1.0
5689.2794923,70609.1640625,70701.34375,71303.3203125,70886.1484375,70830.8046875,70904.5625,71092.2265625,71204.2578125,0.486572265625,0.810791015625,0.33349609375,-2.014159917831421,-0.1220703050494194,0.6713866591453552,80.0,922.0,1.0
5689.2888216,71648.0703125,71740.25,72343.03125,71925.234375,71869.53125,71943.65625,72131.40625,72243.1640625,0.486572265625,0.810302734375,0.33349609375,-2.014159917831421,-0.0915527269244194,0.7324218153953552,80.0,923.0,1.0
5689.2888301,72795.8828125,72888.8671875,73492.453125,73073.578125,73017.6953125,73092.3515625,73280.2890625,73392.3125,0.4853515625,0.809326171875,0.335693359375,-1.9836424589157104,-0.1831054538488388,0.7934569716453552,80.0,924.0,1.0
5689.2913162,72060.59375,72153.2265625,72755.9140625,72337.7578125,72281.8828125,72356.53125,72544.46875,72656.671875,0.486572265625,0.809814453125,0.3349609375,-2.044677495956421,-0.1220703050494194,0.7324218153953552,80.0,925.0,1.0
5689.2913225,70918.0625,71010.0625,71611.7734375,71194.6015625,71138.8984375,71212.9296875,71401.0390625,71512.9765625,0.487060546875,0.809814453125,0.337646484375,-2.014159917831421,-0.1831054538488388,0.7934569716453552,80.0,926.0,1.0
5689.321993,71659.15625,71751.25,72353.4921875,71936.0546875,71879.90625,71954.1171875,72142.046875,72253.8984375,0.488525390625,0.810546875,0.3330078125,-1.9226073026657104,-0.2441406100988388,0.7324218153953552,80.0,927.0,1.0
5689.3250668,72992.6640625,73085.109375,73688.25,73270.0078125,73213.765625,73288.421875,73476.0,73588.0234375,0.48779296875,0.808837890625,0.336181640625,-1.9836424589157104,-0.1220703050494194,0.7629393935203552,80.0,928.0,1.0
5689.3250716,72581.390625,72674.375,73276.890625,72858.734375,72802.671875,72877.5078125,73064.90625,73177.2890625,0.488525390625,0.81103515625,0.3349609375,-1.9836424589157104,-0.1220703050494194,0.7934569716453552,80.0,929.0,1.0
5689.3269924,71286.0625,71378.421875,71980.1328125,71562.6015625,71506.9921875,71581.375,71768.59375,71881.0703125,0.48876953125,0.8115234375,0.33544921875,-1.9836424589157104,-0.0610351525247097,0.7629393935203552,80.0,930.0,1.0
5689.3294935,71679.7265625,71771.8984375,72374.328125,71956.6171875,71900.5546875,71975.03125,72162.5234375,72274.7265625,0.487548828125,0.809814453125,0.3349609375,-2.044677495956421,-0.1220703050494194,0.7629393935203552,80.0,931.0,1.0
5689.3319921,73123.5546875,73216.2734375,73819.59375,73401.2578125,73344.9296875,73419.671875,73607.3359375,73719.3671875,0.487548828125,0.811767578125,0.333984375,-2.044677495956421,-0.2136230319738388,0.7629393935203552,80.0,932.0,1.0
5689.3343532,73065.0859375,73157.890625,73760.7578125,73343.0546875,73286.1015625,73361.109375,73548.7734375,73660.984375,0.486572265625,0.810546875,0.333984375,-2.014159917831421,-0.1831054538488388,0.7324218153953552,80.0,933.0,1.0
5689.3419972,71711.4609375,71804.1796875,72405.890625,71988.625,71932.2109375,72006.7734375,72194.6171875,72306.6484375,0.4873046875,0.810791015625,0.335693359375,-1.9226073026657104,-0.1220703050494194,0.7019042372703552,80.0,934.0,1.0
5689.3444994,71738.1953125,71830.5546875,72433.421875,72015.359375,71959.03125,72033.5078125,72221.2578125,72333.6484375,0.48486328125,0.81201171875,0.333251953125,-1.9226073026657104,-0.1220703050494194,0.7019042372703552,80.0,935.0,1.0
5689.3469937,73204.734375,73297.3671875,73901.484375,73482.5234375,73426.203125,73500.9453125,73688.515625,73800.90625,0.4853515625,0.81103515625,0.333984375,-1.9226073026657104,-0.1220703050494194,0.8239745497703552,80.0,936.0,1.0
5689.3495028,73504.4296875,73597.234375,74201.0,73782.21875,73725.7109375,73800.453125,73988.2109375,74100.328125,0.48681640625,0.808349609375,0.332275390625,-2.014159917831421,-0.1220703050494194,0.7629393935203552,80.0,937.0,1.0
5689.351993,72182.1015625,72274.90625,72877.421875,72459.6171875,72403.203125,72477.6796875,72665.5234375,72777.8203125,0.486328125,0.80810546875,0.3369140625,-1.9836424589157104,-0.1831054538488388,0.8544921278953552,80.0,938.0,1.0
5689.3544926,71844.140625,71936.5859375,72539.375,72121.5703125,72065.0703125,72139.6328125,72327.390625,72439.953125,0.487060546875,0.81005859375,0.33740234375,-1.9531248807907104,-0.0915527269244194,0.7934569716453552,80.0,939.0,1.0
5689.3575752,73242.203125,73335.0078125,73938.6796875,73520.5234375,73463.75,73538.671875,73726.515625,73838.453125,0.4873046875,0.80712890625,0.33740234375,-1.9226073026657104,-0.2136230319738388,0.7934569716453552,80.0,940.0,1.0
5689.3575808,73878.78125,73971.40625,74575.5234375,74157.015625,74100.2421875,74175.25,74363.09375,74474.671875,0.48681640625,0.807373046875,0.3359375,-1.8920897245407104,-0.1831054538488388,0.7629393935203552,80.0,941.0,1.0
5689.359499,72688.0546875,72780.234375,73383.734375,72965.578125,72909.4296875,72983.8125,73171.5703125,73283.5078125,0.487548828125,0.808837890625,0.335205078125,-1.9836424589157104,-0.1831054538488388,0.7019042372703552,80.0,942.0,1.0
5689.3619902,72019.6484375,72111.5625,72714.1640625,72296.9921875,72240.6640625,72314.9609375,72502.359375,72614.6484375,0.489013671875,0.808349609375,0.335693359375,-1.9836424589157104,-0.1525878757238388,0.7324218153953552,80.0,943.0,1.0
5689.3763189,73256.7734375,73349.0390625,73953.078125,73534.2890625,73477.96875,73552.7109375,73740.5546875,73852.671875,0.48583984375,0.8095703125,0.3369140625,-2.014159917831421,-0.1525878757238388,0.7324218153953552,80.0,944.0,1.0
5689.3763251,74190.8984375,74283.4296875,74888.2734375,74468.8671875,74412.625,74487.546875,74675.0390625,74787.421875,0.48681640625,0.809814453125,0.33544921875,-1.9226073026657104,-0.3356933295726776,0.7324218153953552,80.0,945.0,1.0
5689.3782461,73213.0546875,73305.9453125,73909.9765625,73491.375,73434.6953125,73509.8828125,73697.28125,73809.578125,0.48779296875,0.810791015625,0.3349609375,-1.9531248807907104,-0.3662109076976776,0.8544921278953552,80.0,946.0,1.0
5689.3813426,72257.203125,72349.5625,72952.609375,72534.8125,72478.3984375,72553.3203125,72740.5390625,72853.1015625,0.48486328125,0.810791015625,0.333984375,-1.8310545682907104,-0.1831054538488388,0.7629393935203552,80.0,947.0,1.0
5689.3813502,73253.5546875,73346.0,73949.6796875,73531.34375,73475.015625,73549.671875,73737.0703125,73849.453125,0.48583984375,0.810791015625,0.334716796875,-1.8920897245407104,-0.1831054538488388,0.8239745497703552,80.0,948.0,1.0
5689.3895025,74432.8359375,74525.90625,75130.3828125,74711.2421875,74654.5625,74729.75,74917.5078125,75029.984375,0.486083984375,0.808837890625,0.336181640625,-1.9226073026657104,-0.1831054538488388,0.7934569716453552,80.0,949.0,1.0
5689.3963175,73740.109375,73833.0,74436.9453125,74017.8046875,73961.5703125,74036.578125,74224.2421875,74336.8125,0.48828125,0.8095703125,0.336181640625,-2.075195074081421,-0.1831054538488388,0.8850097060203552,80.0,950.0,1.0
5689.3963233,72565.921875,72658.28125,73261.78125,72843.265625,72787.2109375,72861.859375,73049.4375,73161.8203125,0.486328125,0.810302734375,0.332275390625,-2.105712652206421,-0.2441406100988388,0.6408690810203552,80.0,951.0,1.0
5689.3988397,73255.25,73347.7890625,73951.5546875,73533.0390625,73476.5390625,73551.3671875,73738.9453125,73851.1484375,0.489013671875,0.811279296875,0.333251953125,-2.105712652206421,-0.3051757514476776,0.6713866591453552,80.0,952.0,1.0
5689.3988457,74608.25,74701.4140625,75305.984375,74886.75,74830.25,74905.078125,75092.7421875,75205.3125,0.488037109375,0.809326171875,0.3359375,-2.105712652206421,-0.3356933295726776,0.7629393935203552,80.0,953.0,1.0
5689.4169871,74244.9921875,74338.1484375,74942.359375,74523.3984375,74467.078125,74541.5546875,74729.578125,74841.6875,0.487548828125,0.80712890625,0.33447265625,-2.075195074081421,-0.3051757514476776,0.7019042372703552,80.0,954.0,1.0
5689.4495191,72930.8828125,73023.6015625,73626.9140625,73208.5859375,73152.2578125,73226.9140625,73414.6640625,73526.78125,0.488037109375,0.81103515625,0.334716796875,-2.014159917831421,-0.2441406100988388,0.6713866591453552,80.0,955.0,1.0
5689.4495272,73271.4375,73363.8828125,73967.828125,73549.1328125,73492.625,73567.8203125,73755.3046875,73867.515625,0.488037109375,0.81103515625,0.33642578125,-1.9531248807907104,-0.2441406100988388,0.7629393935203552,80.0,956.0,1.0
5689.44953,74723.046875,74815.9375,75420.8671875,75001.28125,74944.8671875,75020.4140625,75207.453125,75319.9296875,0.486572265625,0.812255859375,0.334228515625,-1.9226073026657104,-0.2441406100988388,0.7019042372703552,80.0,957.0,1.0
5689.449532,74718.7578125,74811.3828125,75416.3125,74996.71875,74940.3046875,75015.6796875,75202.984375,75315.546875,0.486572265625,0.810302734375,0.33740234375,-1.9531248807907104,-0.2441406100988388,0.7324218153953552,80.0,958.0,1.0
5689.449534,73360.84375,73453.828125,74057.5,73638.8125,73582.3046875,73657.4921875,73844.7109375,73957.3671875,0.486328125,0.810302734375,0.337646484375,-1.9226073026657104,-0.2136230319738388,0.7934569716453552,80.0,959.0,1.0
5689.4495364,73334.5546875,73427.8125,74031.3046875,73612.703125,73555.8359375,73631.390625,73818.3359375,73931.2578125,0.48681640625,0.8095703125,0.336181640625,-1.9531248807907104,-0.1525878757238388,0.8239745497703552,80.0,960.0,1.0
5689.4537511,74793.9453125,74887.1953125,75491.859375,75072.2734375,75015.5,75091.2265625,75278.4453125,75391.1875,0.485595703125,0.809814453125,0.336181640625,-1.9226073026657104,-0.1831054538488388,0.7934569716453552,80.0,961.0,1.0
5689.4537582,75144.0625,75237.4921875,75842.3359375,75422.8359375,75366.2421875,75441.703125,75629.0078125,75741.484375,0.48583984375,0.809326171875,0.3310546875,-1.9226073026657104,-0.0610351525247097,0.8239745497703552,80.0,962.0,1.0
5689.4537603,73833.265625,73926.4296875,74530.1953125,74111.5,74055.53125,74130.3671875,74317.40625,74429.8828125,0.4853515625,0.8095703125,0.3330078125,-2.014159917831421,-0.1220703050494194,0.7629393935203552,80.0,963.0,1.0
5689.4537626,73442.7421875,73535.3671875,74139.1328125,73720.6171875,73664.6484375,73739.3046875,73926.4296875,74039.0859375,0.485595703125,0.810302734375,0.33544921875,-1.9836424589157104,-0.0915527269244194,0.7934569716453552,80.0,964.0,1.0
5689.4563353,74820.140625,74913.125,75518.140625,75099.0078125,75042.3203125,75117.78125,75305.0,75417.2890625,0.486083984375,0.811767578125,0.334716796875,-2.044677495956421,-0.0610351525247097,0.8239745497703552,80.0,965.0,1.0
5689.4563403,75501.875,75595.8359375,76200.9453125,75781.4453125,75724.765625,75800.1328125,75987.3515625,76100.359375,0.48486328125,0.809326171875,0.33447265625,-1.9226073026657104,-0.2441406100988388,0.7324218153953552,80.0,966.0,1.0
5689.4582484,74334.75,74428.2734375,75032.3984375,74613.5234375,74557.015625,74632.1171875,74819.515625,74932.2578125,0.487060546875,0.810302734375,0.334228515625,-1.9226073026657104,-0.2441406100988388,0.7934569716453552,80.0,967.0,1.0
5689.4607487,73618.9609375,73711.765625,74315.796875,73897.1953125,73840.421875,73915.703125,74103.28125,74215.5703125,0.487060546875,0.810546875,0.333984375,-1.9531248807907104,-0.1220703050494194,0.6103515028953552,80.0,968.0,1.0
5689.4775699,74823.71875,74916.7890625,75521.71875,75102.21875,75045.625,75120.90625,75308.3046875,75421.40625,0.488525390625,0.809814453125,0.336181640625,-1.9531248807907104,-0.0610351525247097,0.6103515028953552,80.0,969.0,1.0
5689.4775768,75798.6171875,75892.4921875,76497.5078125,76077.7421875,76020.96875,76096.6953125,76283.9140625,76397.015625,0.489501953125,0.810791015625,0.334716796875,-2.014159917831421,-0.1220703050494194,0.7324218153953552,80.0,970.0,1.0
5689.4794935,74858.0546875,74951.6640625,75555.9609375,75136.640625,75080.2265625,75155.421875,75342.90625,75455.5625,0.488525390625,0.80908203125,0.33349609375,-2.075195074081421,-0.1831054538488388,0.7324218153953552,80.0,971.0,1.0
5689.4820052,73861.703125,73954.6875,74558.453125,74139.84375,74083.4296875,74158.3515625,74345.75,74458.671875,0.487060546875,0.808349609375,0.334716796875,-2.044677495956421,-0.1831054538488388,0.5493163466453552,80.0,972.0,1.0
5689.4844975,74816.2109375,74909.90625,75514.2109375,75095.0703125,75038.2109375,75113.1328125,75301.15625,75413.984375,0.48779296875,0.809326171875,0.333984375,-2.044677495956421,-0.1525878757238388,0.6713866591453552,80.0,973.0,1.0
5689.4869829,76025.3515625,76119.140625,76724.8671875,76304.921875,76247.5234375,76323.1640625,76511.1875,76623.75,0.48583984375,0.810302734375,0.337158203125,-1.9226073026657104,-0.1525878757238388,0.7019042372703552,80.0,974.0,1.0
5689.4913404,75376.703125,75470.3984375,76075.328125,75655.921875,75598.875,75674.4296875,75862.453125,75974.5703125,0.485595703125,0.80908203125,0.334716796875,-1.9226073026657104,-0.2441406100988388,0.6713866591453552,80.0,975.0,1.0
5689.4913462,74173.375,74266.8046875,74870.390625,74451.96875,74395.28125,74470.296875,74658.140625,74770.8828125,0.486083984375,0.809814453125,0.337646484375,-1.9531248807907104,-0.1525878757238388,0.7324218153953552,80.0,976.0,1.0
5689.5069905,74813.171875,74906.6015625,75510.9921875,75092.296875,75035.34375,75110.4453125,75298.203125,75410.6796875,0.486083984375,0.810546875,0.333740234375,-2.044677495956421,-0.1220703050494194,0.7019042372703552,80.0,977.0,1.0
5689.5100678,76185.7421875,76279.4453125,76885.265625,76465.6796875,76408.0078125,76483.921875,76671.4921875,76783.875,0.48583984375,0.811279296875,0.332763671875,-1.9836424589157104,-0.1525878757238388,0.7019042372703552,80.0,978.0,1.0
5689.5100749,75877.203125,75970.8984375,76576.1875,76156.6875,76099.5546875,76175.015625,76362.6796875,76475.2421875,0.4873046875,0.809814453125,0.332275390625,-2.014159917831421,-0.2746581733226776,0.8239745497703552,80.0,979.0,1.0
5689.5119851,74547.6328125,74641.1484375,75245.6328125,74826.578125,74770.078125,74845.0859375,75032.75,75145.140625,0.488037109375,0.81103515625,0.334716796875,-1.8920897245407104,-0.2136230319738388,0.8239745497703552,80.0,980.0,1.0
5689.5146714,74832.2109375,74925.5546875,75530.390625,75111.1640625,75054.5703125,75130.03125,75317.421875,75429.359375,0.488037109375,0.810302734375,0.332275390625,-1.8920897245407104,-0.1525878757238388,0.7019042372703552,80.0,981.0,1.0
5689.5182312,76290.171875,76384.046875,76989.6015625,76570.015625,76512.8828125,76589.0625,76776.28125,76888.5703125,0.4873046875,0.811279296875,0.333984375,-1.8920897245407104,-0.1220703050494194,0.7629393935203552,80.0,982.0,1.0
5689.5325746,76337.5625,76431.6171875,77037.171875,76617.2265625,76560.5390625,76636.265625,76823.3984375,76935.8671875,0.485107421875,0.810791015625,0.33544921875,-1.9531248807907104,-0.1831054538488388,0.7934569716453552,80.0,983.0,1.0
5689.5325823,74975.265625,75069.0546875,75673.625,75254.125,75197.9765625,75273.171875,75460.296875,75572.953125,0.48583984375,0.81103515625,0.333984375,-1.9226073026657104,-0.2136230319738388,0.8239745497703552,80.0,984.0,1.0
5689.5343425,74892.4765625,74985.546875,75590.4765625,75170.890625,75114.46875,75189.5703125,75377.0625,75489.53125,0.485595703125,0.810546875,0.334228515625,-1.8005369901657104,-0.2746581733226776,0.7934569716453552,80.0,985.0,1.0
5689.5419969,76347.125,76440.9140625,77046.5546875,76626.5234375,76569.5703125,76645.390625,76833.140625,76945.34375,0.484375,0.809814453125,0.338623046875,-1.9226073026657104,-0.2441406100988388,0.7629393935203552,80.0,986.0,1.0
5689.5444983,76747.3125,76841.453125,77447.4609375,77027.15625,76969.484375,77045.6640625,77233.4140625,77345.890625,0.485595703125,0.81005859375,0.34130859375,-1.9226073026657104,-0.3051757514476776,0.7934569716453552,80.0,987.0,1.0
5689.5469956,75449.5703125,75543.1796875,76148.4609375,75728.609375,75671.8359375,75747.296875,75934.515625,76047.2578125,0.48681640625,0.810302734375,0.337646484375,-1.9531248807907104,-0.1831054538488388,0.8239745497703552,80.0,988.0,1.0
5689.5494876,75007.359375,75100.7890625,75705.453125,75285.59375,75229.5390625,75304.7265625,75492.0390625,75604.6015625,0.485595703125,0.81005859375,0.335205078125,-2.075195074081421,-0.1831054538488388,0.7324218153953552,80.0,989.0,1.0
5689.55382,76366.171875,76460.671875,77065.78125,76645.390625,76588.7890625,76664.6953125,76851.7421875,76964.484375,0.48583984375,0.810302734375,0.334716796875,-1.9531248807907104,-0.2136230319738388,0.8850097060203552,80.0,990.0,1.0
5689.5538247,77096.625,77191.3984375,77797.21875,77376.203125,77319.515625,77395.6015625,77582.90625,77695.6484375,0.4853515625,0.8115234375,0.335205078125,-1.9226073026657104,-0.3356933295726776,0.7629393935203552,80.0,991.0,1.0
5689.561989,75957.0390625,76051.1015625,76656.4765625,76236.171875,76179.3984375,76255.125,76442.4296875,76555.171875,0.485595703125,0.810546875,0.335693359375,-2.044677495956421,-0.3356933295726776,0.7629393935203552,80.0,992.0,1.0
5689.5688162,75190.375,75284.1640625,75889.1796875,75469.234375,75412.734375,75488.28125,75675.5859375,75787.8828125,0.48486328125,0.810302734375,0.333984375,-1.9531248807907104,-0.1525878757238388,0.7324218153953552,80.0,993.0,1.0
5689.5688231,76362.859375,76457.1875,77062.6484375,76642.171875,76585.484375,76661.4765625,76848.6953125,76961.265625,0.4853515625,0.81103515625,0.3359375,-1.9531248807907104,-0.0915527269244194,0.7019042372703552,80.0,994.0,1.0
5689.5707403,77375.5703125,77470.078125,78075.984375,77655.4140625,77598.375,77674.375,77861.6796875,77974.6015625,0.485595703125,0.81005859375,0.333984375,-1.9226073026657104,-0.2136230319738388,0.7629393935203552,80.0,995.0,1.0
5689.574493,76474.890625,76569.125,77174.5859375,76754.28125,76697.2421875,76773.2421875,76960.28125,77073.203125,0.486572265625,0.81103515625,0.333984375,-2.044677495956421,-0.3051757514476776,0.6103515028953552,80.0,996.0,1.0
5689.5838163,75440.1796875,75533.96875,76139.2578125,75719.3125,75662.4453125,75738.265625,75925.6640625,76038.40625,0.485595703125,0.810791015625,0.33154296875,-2.044677495956421,-0.2136230319738388,0.5798339247703552,80.0,997.0,1.0
5689.583823,76348.2890625,76442.34375,77047.984375,76627.5078125,76570.5546875,76646.7265625,76834.390625,76946.953125,0.486083984375,0.8095703125,0.33544921875,-2.075195074081421,-0.2746581733226776,0.7629393935203552,80.0,998.0,1.0
5689.5900731,77587.734375,77682.421875,78288.421875,77867.4921875,77810.5390625,77887.0703125,78074.203125,78187.03125,0.4853515625,0.808837890625,0.33447265625,-2.044677495956421,-0.2441406100988388,0.7324218153953552,80.0,999.0,1.0
5689.590082,76987.1015625,77081.6015625,77686.9765625,77266.6796875,77209.7265625,77285.984375,77473.03125,77585.6796875,0.486572265625,0.810546875,0.33544921875,-1.9836424589157104,-0.1831054538488388,0.6713866591453552,80.0,1000.0,1.0
5689.5919886,75755.875,75849.3046875,76454.5,76034.6484375,75978.4140625,76053.8671875,76240.90625,76353.6484375,0.48779296875,0.81201171875,0.3388671875,-2.014159917831421,-0.1220703050494194,0.7934569716453552,80.0,1001.0,1.0
5689.6032445,76344.0859375,76437.875,77043.515625,76623.484375,76566.7109375,76642.4375,76829.7421875,76942.578125,0.48828125,0.810546875,0.33740234375,-1.9836424589157104,-0.2441406100988388,0.7934569716453552,80.0,1002.0,1.0
5689.6063141,77735.9765625,77830.390625,78436.8359375,78015.546875,77958.7734375,78035.3984375,78222.5234375,78335.5390625,0.4853515625,0.8125,0.333984375,-1.9531248807907104,-0.2441406100988388,0.6713866591453552,80.0,1003.0,1.0
5689.6063187,77481.5234375,77575.578125,78181.84375,77760.921875,77704.1484375,77780.765625,77967.625,78080.3671875,0.48583984375,0.81201171875,0.3330078125,-2.044677495956421,-0.1831054538488388,0.7324218153953552,80.0,1004.0,1.0
5689.6146728,76135.3203125,76228.9296875,76834.6640625,76414.1796875,76357.5,76433.4921875,76621.0703125,76733.3671875,0.486572265625,0.811767578125,0.337158203125,-2.014159917831421,-0.1525878757238388,0.7324218153953552,80.0,1005.0,1.0
5689.6175658,76360.0,76453.6953125,77059.34375,76639.125,76582.53125,76658.0859375,76845.75,76958.046875,0.48583984375,0.810791015625,0.334716796875,-1.9226073026657104,-0.1525878757238388,0.7324218153953552,80.0,1006.0,1.0
5689.6175733,77825.9140625,77919.796875,78526.953125,78105.7578125,78048.359375,78125.25,78312.3828125,78425.03125,0.48486328125,0.809814453125,0.3369140625,-1.9531248807907104,-0.1525878757238388,0.7019042372703552,80.0,1007.0,1.0
5689.6232309,77928.375,78022.34375,78629.59375,78208.3984375,78151.0,78227.625,78415.015625,78527.3125,0.486328125,0.8095703125,0.33349609375,-2.044677495956421,-0.3356933295726776,0.7324218153953552,80.0,1008.0,1.0
5689.6294849,76568.40625,76661.9296875,77268.109375,76847.890625,76790.8515625,76866.671875,77053.9765625,77166.6328125,0.4873046875,0.811767578125,0.332763671875,-1.9531248807907104,-0.1831054538488388,0.7324218153953552,80.0,1009.0,1.0
5689.633809,76422.3203125,76516.1015625,77121.9296875,76701.7109375,76644.7578125,76720.4921875,76907.9765625,77020.71875,0.48779296875,0.8095703125,0.333251953125,-1.9836424589157104,-0.2746581733226776,0.7324218153953552,80.0,1010.0,1.0
5689.6338135,77869.546875,77963.875,78570.9453125,78149.75,78092.6171875,78168.8828125,78355.921875,78469.2890625,0.487548828125,0.81103515625,0.334716796875,-1.9531248807907104,-0.1525878757238388,0.8239745497703552,80.0,1011.0,1.0
5689.6432456,78326.0625,78420.4765625,79027.546875,78606.53125,78549.3984375,78626.109375,78812.5234375,78925.9765625,0.48681640625,0.8115234375,0.335205078125,-1.9836424589157104,-0.1831054538488388,0.8239745497703552,80.0,1012.0,1.0
5689.6463212,77044.234375,77138.2890625,77744.46875,77323.984375,77267.3046875,77343.390625,77530.0703125,77643.171875,0.486572265625,0.81103515625,0.335693359375,-1.9836424589157104,-0.2136230319738388,0.7324218153953552,80.0,1013.0,1.0
5689.6463283,76543.28125,76636.890625,77242.890625,76822.59375,76765.8203125,76841.6328125,77028.8515625,77141.59375,0.486328125,0.808837890625,0.33740234375,-2.014159917831421,-0.1831054538488388,0.7629393935203552,80.0,1014.0,1.0
5689.6482489,77879.46875,77973.6171875,78580.3359375,78159.1328125,78102.1875,78178.625,78365.84375,78478.859375,0.487060546875,0.80908203125,0.336669921875,-1.9836424589157104,-0.1525878757238388,0.7019042372703552,80.0,1015.0,1.0
5689.6570134,78657.3984375,78751.640625,79358.7109375,78937.6953125,78880.46875,78957.0078125,79143.953125,79257.0546875,0.487060546875,0.810791015625,0.336669921875,-2.014159917831421,-0.1831054538488388,0.7934569716453552,80.0,1016.0,1.0
5689.6600683,77545.984375,77640.1328125,78246.21875,77825.9140625,77768.875,77845.140625,78032.0859375,78145.1875,0.486572265625,0.8095703125,0.337646484375,-1.9531248807907104,-0.2136230319738388,0.8239745497703552,80.0,1017.0,1.0
5689.6600773,76726.65625,76820.359375,77426.5390625,77005.96875,76949.3671875,77025.546875,77212.2265625,77325.234375,0.48974609375,0.809814453125,0.336669921875,-1.9836424589157104,-0.2746581733226776,0.9155272841453552,80.0,1018.0,1.0
5689.6632423,77860.7890625,77954.9296875,78562.1796875,78141.078125,78084.3046875,78160.7421875,78347.25,78460.4375,0.489013671875,0.808837890625,0.337158203125,-2.014159917831421,-0.3051757514476776,0.8239745497703552,80.0,1019.0,1.0
5689.6769879,78917.84375,79012.703125,79620.2265625,79198.40625,79141.6328125,79218.4296875,79405.203125,79518.125,0.48779296875,0.810546875,0.335693359375,-2.105712652206421,-0.2136230319738388,0.6713866591453552,80.0,1020.0,1.0
5689.6800662,78058.9140625,78153.7734375,78760.7578125,78339.203125,78282.609375,78359.046875,78545.734375,78659.0078125,0.48583984375,0.8095703125,0.336669921875,-1.9836424589157104,-0.2746581733226776,0.6713866591453552,80.0,1021.0,1.0
5689.6800735,76978.875,77073.0234375,77679.734375,77258.6328125,77202.2109375,77278.1171875,77465.15625,77577.8984375,0.4873046875,0.8095703125,0.333251953125,-2.014159917831421,-0.2136230319738388,0.7934569716453552,80.0,1022.0,1.0
5689.6819806,77841.65625,77935.9765625,78542.875,78121.671875,78064.8984375,78141.078125,78328.203125,78441.0390625,0.48681640625,0.80859375,0.33447265625,-1.9836424589157104,-0.2136230319738388,0.7019042372703552,80.0,1023.0,1.0
5689.6932345,79113.734375,79208.328125,79815.4921875,79393.9375,79337.25,79413.515625,79600.6484375,79713.7421875,0.486572265625,0.80810546875,0.332763671875,-1.9226073026657104,-0.1525878757238388,0.7324218153953552,80.0,1024.0,1.0
5689.6963095,78566.7421875,78661.421875,79268.6796875,78846.9453125,78790.4375,78866.703125,79053.5625,79166.3984375,0.48583984375,0.809814453125,0.335693359375,-1.8920897245407104,-0.2136230319738388,0.6408690810203552,80.0,1025.0,1.0
5689.6963163,77307.359375,77401.234375,78007.5,77586.484375,77530.25,77606.421875,77793.28125,77906.0234375,0.486572265625,0.809814453125,0.333740234375,-1.9836424589157104,-0.1831054538488388,0.7019042372703552,80.0,1026.0,1.0
5689.6982311,77836.46875,77930.609375,78537.2421875,78116.0390625,78059.625,78135.890625,78322.84375,78435.9375,0.48583984375,0.81103515625,0.334716796875,-1.9836424589157104,-0.2746581733226776,0.7324218153953552,80.0,1027.0,1.0
5689.7075662,79245.875,79340.921875,79947.9921875,79526.5234375,79469.484375,79546.2890625,79733.328125,79846.6015625,0.48681640625,0.812255859375,0.33642578125,-2.044677495956421,-0.3051757514476776,0.7324218153953552,80.0,1028.0,1.0
5689.7075739,79048.109375,79142.703125,79749.7734375,79328.578125,79271.2734375,79347.8046875,79535.109375,79648.4765625,0.487548828125,0.8115234375,0.333251953125,-2.075195074081421,-0.2136230319738388,0.6713866591453552,80.0,1029.0,1.0
5689.7094911,77694.4921875,77788.546875,78395.2578125,77974.15625,77917.6484375,77993.375,78180.6875,78293.9609375,0.4873046875,0.81005859375,0.33251953125,-2.014159917831421,-0.2136230319738388,0.7019042372703552,80.0,1030.0,1.0
5689.7182299,77859.53125,77953.765625,78560.125,78139.109375,78082.78125,78158.78125,78345.8203125,78459.0078125,0.48779296875,0.810791015625,0.3330078125,-1.9836424589157104,-0.1220703050494194,0.7019042372703552,80.0,1031.0,1.0
5689.72257,79327.59375,79421.921875,80029.3515625,79607.3515625,79550.9375,79627.5546875,79814.59375,79927.9609375,0.486083984375,0.80908203125,0.333740234375,-2.014159917831421,-0.1220703050494194,0.7324218153953552,80.0,1032.0,1.0
5689.7225778,79485.4921875,79579.6328125,80187.6015625,79765.2421875,79708.828125,79785.5390625,79972.578125,80085.859375,0.486328125,0.80810546875,0.331787109375,-1.9531248807907104,-0.2746581733226776,0.7019042372703552,80.0,1033.0,1.0
5689.7363195,78130.4375,78224.5859375,78831.8359375,78410.1953125,78353.6875,78429.953125,78616.9921875,78730.1796875,0.48486328125,0.81005859375,0.334228515625,-1.9836424589157104,-0.1831054538488388,0.7629393935203552,80.0,1034.0,1.0
5689.7363285,77926.4140625,78020.109375,78627.2734375,78205.8984375,78149.3046875,78225.65625,78412.6953125,78525.9765625,0.486328125,0.8095703125,0.333740234375,-1.9836424589157104,-0.1831054538488388,0.7324218153953552,80.0,1035.0,1.0
5689.7386736,79360.6796875,79455.0,80062.4296875,79640.875,79583.65625,79660.546875,79847.5,79960.8671875,0.486572265625,0.808349609375,0.334716796875,-1.9226073026657104,-0.2746581733226776,0.7324218153953552,80.0,1036.0,1.0
5689.7386799,79867.96875,79962.7421875,80570.0859375,80148.265625,80091.1328125,80168.3828125,80355.328125,80468.34375,0.487548828125,0.8095703125,0.33642578125,-1.9226073026657104,-0.1831054538488388,0.7934569716453552,80.0,1037.0,1.0
5689.7475655,78606.796875,78701.03125,79308.109375,78886.734375,78829.6875,78906.4921875,79093.2578125,79206.625,0.48486328125,0.808349609375,0.335205078125,-1.9226073026657104,-0.1831054538488388,0.7934569716453552,80.0,1038.0,1.0
5689.747573,78048.5390625,78142.59375,78749.4921875,78328.203125,78271.1640625,78347.875,78534.6484375,78648.1953125,0.48583984375,0.808837890625,0.3359375,-1.8615721464157104,-0.3051757514476776,0.7629393935203552,80.0,1039.0,1.0
5689.7613127,79358.171875,79452.765625,80060.1953125,79638.5546875,79581.0625,79658.40625,79845.4453125,79958.8125,0.485595703125,0.809814453125,0.33447265625,-1.9531248807907104,-0.1831054538488388,0.7629393935203552,80.0,1040.0,1.0
5689.7613186,80184.0234375,80278.890625,80886.40625,80464.765625,80407.3671875,80485.1484375,80671.7421875,80785.0234375,0.486328125,0.808837890625,0.333984375,-1.9226073026657104,-0.1831054538488388,0.7324218153953552,80.0,1041.0,1.0
5689.7638129,79106.3125,79200.8203125,79808.3359375,79386.6015625,79329.5625,79406.5390625,79593.4921875,79706.5,0.4853515625,0.80908203125,0.333251953125,-1.9226073026657104,-0.1220703050494194,0.6408690810203552,80.0,1042.0,1.0
5689.7638172,78240.140625,78334.28125,78941.265625,78519.890625,78463.03125,78539.4765625,78726.515625,78839.7890625,0.48681640625,0.810546875,0.3330078125,-1.9531248807907104,-0.1525878757238388,0.7019042372703552,80.0,1043.0,1.0
5689.7669922,79337.875,79432.5625,80039.8984375,79618.3515625,79561.125,79637.9296875,79825.0546875,79938.421875,0.4873046875,0.811279296875,0.33642578125,-1.9836424589157104,-0.1525878757238388,0.8544921278953552,80.0,1044.0,1.0
5689.7763111,80429.09375,80523.953125,81131.46875,80709.5625,80652.4296875,80729.6796875,80916.8046875,81030.265625,0.487060546875,0.8095703125,0.336669921875,-1.9836424589157104,-0.1831054538488388,0.7629393935203552,80.0,1045.0,1.0
5689.7763179,79611.9140625,79706.4140625,80313.3984375,79892.109375,79834.7109375,79911.875,80099.0859375,80212.28125,0.487060546875,0.81005859375,0.335205078125,-1.9531248807907104,-0.1831054538488388,0.7934569716453552,80.0,1046.0,1.0
5689.7850792,78501.7421875,78595.9765625,79202.875,78781.9453125,78724.7265625,78801.171875,78988.5625,79101.578125,0.486572265625,0.80908203125,0.33740234375,-1.9531248807907104,-0.0915527269244194,0.7934569716453552,80.0,1047.0,1.0
5689.7850863,79312.84375,79407.6171875,80014.8671875,79593.5859375,79536.453125,79612.984375,79800.3828125,79913.3046875,0.48583984375,0.810546875,0.337890625,-1.9226073026657104,-0.3051757514476776,0.6713866591453552,80.0,1048.0,1.0
5689.7938178,80610.046875,80705.0,81312.7890625,80890.6953125,80833.5703125,80910.4609375,81097.3203125,81210.6875,0.485595703125,0.81005859375,0.33349609375,-1.9531248807907104,-0.2136230319738388,0.7934569716453552,80.0,1049.0,1.0
5689.7938238,80110.984375,80206.2890625,80813.6328125,80391.8984375,80334.765625,80411.65625,80598.25,80711.9765625,0.48583984375,0.808837890625,0.333251953125,-1.8920897245407104,-0.1831054538488388,0.9155272841453552,80.0,1050.0,1.0
5689.8000615,78831.296875,78925.890625,79532.4296875,79111.5859375,79054.640625,79130.8984375,79318.1171875,79431.3125,0.48583984375,0.810791015625,0.332763671875,-1.9836424589157104,-0.2136230319738388,0.8239745497703552,80.0,1051.0,1.0
5689.8000673,79305.2421875,79399.9296875,80007.1796875,79585.7109375,79528.8515625,79605.5625,79792.515625,79905.609375,0.486083984375,0.810546875,0.335693359375,-2.044677495956421,-0.1831054538488388,0.6408690810203552,80.0,1052.0,1.0
5689.811312,80729.2265625,80824.71875,81432.59375,81010.59375,80953.640625,81031.15625,81217.390625,81331.03125,0.48681640625,0.81005859375,0.335693359375,-1.9836424589157104,-0.3051757514476776,0.6713866591453552,80.0,1053.0,1.0
5689.8113184,80583.140625,80678.359375,81286.0546875,80863.96875,80807.1953125,80884.3515625,81071.03125,81184.7578125,0.4873046875,0.808349609375,0.3359375,-2.014159917831421,-0.2746581733226776,0.7019042372703552,80.0,1054.0,1.0
5689.8138224,79220.578125,79315.2578125,79922.328125,79500.6015625,79443.734375,79520.625,79707.3984375,79820.6796875,0.48681640625,0.809326171875,0.3330078125,-2.044677495956421,-0.1831054538488388,0.8239745497703552,80.0,1055.0,1.0
5689.8138295,79326.1640625,79421.0234375,80028.1875,79606.453125,79549.6796875,79626.3984375,79813.4375,79926.3515625,0.48681640625,0.809326171875,0.333740234375,-2.075195074081421,-0.2746581733226776,0.7629393935203552,80.0,1056.0,1.0
5689.8219781,80796.9140625,80892.1328125,81499.46875,81077.46875,81020.515625,81098.125,81284.890625,81397.8125,0.486328125,0.812255859375,0.33642578125,-2.044677495956421,-0.1831054538488388,0.7629393935203552,80.0,1057.0,1.0
5689.8263188,81009.703125,81104.46875,81712.2578125,81289.9921875,81233.3046875,81310.8203125,81497.4140625,81610.6015625,0.487060546875,0.8115234375,0.33447265625,-2.044677495956421,-0.2136230319738388,0.7934569716453552,80.0,1058.0,1.0
5689.8263237,79661.4453125,79756.2109375,80363.375,79941.8203125,79884.78125,79962.1171875,80148.9765625,80262.2578125,0.486083984375,0.809814453125,0.33642578125,-1.9836424589157104,-0.1831054538488388,0.7934569716453552,80.0,1059.0,1.0
5689.8350626,79398.140625,79493.0,80100.25,79678.515625,79621.4765625,79698.3671875,79885.40625,79998.4140625,0.486328125,0.810302734375,0.333251953125,-1.9836424589157104,-0.2746581733226776,0.8239745497703552,80.0,1060.0,1.0
5689.8350699,80818.3671875,80914.03125,81521.2890625,81099.5546875,81042.3359375,81119.4921875,81306.6171875,81419.71875,0.485107421875,0.81103515625,0.331787109375,-1.9226073026657104,-0.1831054538488388,0.7934569716453552,80.0,1061.0,1.0
5689.8488106,81375.9140625,81471.21875,82079.09375,81657.09375,81599.6953125,81676.9453125,81864.25,81977.6171875,0.485107421875,0.812255859375,0.33642578125,-2.014159917831421,-0.2441406100988388,0.6713866591453552,80.0,1062.0,1.0
5689.8488171,80135.296875,80230.0703125,80837.6796875,80416.0390625,80358.640625,80435.4375,80623.1015625,80736.0234375,0.484375,0.810791015625,0.335693359375,-2.044677495956421,-0.3356933295726776,0.7324218153953552,80.0,1063.0,1.0
5689.8513159,79526.2578125,79620.8515625,80227.921875,79806.640625,79749.7734375,79826.6640625,80013.703125,80126.5390625,0.48681640625,0.80908203125,0.3359375,-1.9531248807907104,-0.2441406100988388,0.5798339247703552,80.0,1064.0,1.0
5689.8513245,80808.984375,80904.0234375,81511.6328125,81089.8046875,81032.5859375,81110.28125,81296.9609375,81409.8828125,0.487060546875,0.810302734375,0.334716796875,-2.044677495956421,-0.2136230319738388,0.7019042372703552,80.0,1065.0,1.0
5689.8532389,81676.5,81772.1640625,82380.3984375,81958.3984375,81900.640625,81978.515625,82165.015625,82278.296875,0.4853515625,0.810302734375,0.3359375,-1.9531248807907104,-0.1831054538488388,0.8544921278953552,80.0,1066.0,1.0
5689.8569946,80633.921875,80729.140625,81336.9296875,80915.1953125,80858.0625,80935.046875,81122.0859375,81235.2734375,0.486328125,0.810302734375,0.337158203125,-2.044677495956421,-0.2746581733226776,0.7934569716453552,80.0,1067.0,1.0
5689.8713128,79725.1015625,79820.046875,80427.484375,80006.109375,79949.0625,80025.7734375,80212.7265625,80325.828125,0.486572265625,0.809326171875,0.33642578125,-2.105712652206421,-0.3356933295726776,0.8239745497703552,80.0,1068.0,1.0
5689.8713198,80782.515625,80877.8203125,81485.703125,81063.609375,81006.65625,81083.4609375,81270.5859375,81384.046875,0.486572265625,0.809814453125,0.339599609375,-1.9836424589157104,-0.2441406100988388,0.7629393935203552,80.0,1069.0,1.0
5689.8732268,81910.296875,82005.6015625,82614.1953125,82191.484375,82134.7109375,82211.7734375,82398.90625,82512.2734375,0.48681640625,0.81103515625,0.337158203125,-1.8310545682907104,-0.1831054538488388,0.6713866591453552,80.0,1070.0,1.0
5689.8757454,81136.75,81231.6953125,81839.6640625,81417.6640625,81360.625,81437.78125,81624.90625,81738.1875,0.486328125,0.813720703125,0.33251953125,-1.8005369901657104,-0.2441406100988388,0.6713866591453552,80.0,1071.0,1.0
5689.8794709,79991.3515625,80086.484375,80693.6484375,80272.2734375,80215.140625,80292.1171875,80479.15625,80592.6171875,0.485595703125,0.811767578125,0.333984375,-1.8920897245407104,-0.3051757514476776,0.7324218153953552,80.0,1072.0,1.0
5689.8888157,80751.7578125,80846.796875,81454.5859375,81032.9453125,80975.6328125,81052.703125,81239.8359375,81353.109375,0.484375,0.810546875,0.33544921875,-1.9226073026657104,-0.2746581733226776,0.7629393935203552,80.0,1073.0,1.0
5689.888823,82072.390625,82168.234375,82776.46875,82354.46875,82297.15625,82374.3203125,82561.890625,82675.171875,0.484130859375,0.810302734375,0.33544921875,-1.9836424589157104,-0.2746581733226776,0.6713866591453552,80.0,1074.0,1.0
5689.8913076,81626.609375,81722.359375,82330.328125,81908.328125,81851.015625,81927.90625,82115.578125,82228.5859375,0.484375,0.811767578125,0.338134765625,-1.9226073026657104,-0.2136230319738388,0.7019042372703552,80.0,1075.0,1.0
5689.8913131,80325.2890625,80420.1484375,81027.8515625,80606.1171875,80548.8046875,80625.7890625,80812.828125,80925.921875,0.483154296875,0.810302734375,0.33935546875,-1.8920897245407104,-0.2136230319738388,0.7019042372703552,80.0,1076.0,1.0
5689.9019773,80740.671875,80835.359375,81443.1484375,81021.4140625,80964.1015625,81041.4375,81228.2109375,81341.4921875,0.484619140625,0.808349609375,0.33642578125,-1.9531248807907104,-0.1220703050494194,0.7324218153953552,80.0,1077.0,1.0
5689.9119056,82178.4296875,82274.0,82881.96875,82459.8828125,82402.484375,82480.265625,82666.9453125,82780.40625,0.483642578125,0.80908203125,0.33349609375,-1.9836424589157104,-0.2441406100988388,0.8850097060203552,80.0,1078.0,1.0
5689.9119117,82087.3203125,82182.984375,82791.046875,82368.953125,82311.2890625,82389.0703125,82575.9296875,82689.4765625,0.48681640625,0.809326171875,0.3349609375,-2.075195074081421,-0.1831054538488388,0.7934569716453552,80.0,1079.0,1.0
5689.9119141,80718.0546875,80813.1796875,81421.0625,80999.4140625,80942.109375,81019.1796875,81206.21875,81319.4921875,0.4873046875,0.81103515625,0.337890625,-1.8920897245407104,-0.2441406100988388,0.7019042372703552,80.0,1080.0,1.0
5689.9146434,80764.7265625,80860.125,81468.1796875,81046.1796875,80988.8671875,81066.0234375,81253.15625,81366.34375,0.485595703125,0.810546875,0.336669921875,-1.9531248807907104,-0.1220703050494194,0.7324218153953552,80.0,1081.0,1.0
5689.9169669,82231.265625,82327.2890625,82935.703125,82513.078125,82455.5859375,82533.640625,82720.59375,82833.8671875,0.48583984375,0.811767578125,0.335205078125,-1.9836424589157104,-0.1525878757238388,0.6408690810203552,80.0,1082.0,1.0
5689.9232287,82497.25,82593.1875,83201.78125,82779.328125,82721.3046875,82799.8984375,82986.484375,83099.859375,0.4873046875,0.811767578125,0.33544921875,-1.9531248807907104,-0.2136230319738388,0.6408690810203552,80.0,1083.0,1.0
5689.9325663,81158.828125,81253.8671875,81862.015625,81440.1015625,81382.703125,81459.8671875,81646.90625,81760.1796875,0.486328125,0.812255859375,0.336181640625,-1.9226073026657104,-0.1831054538488388,0.6713866591453552,80.0,1084.0,1.0
5689.9325725,80840.1875,80935.578125,81543.28125,81121.546875,81064.1484375,81140.859375,81328.34375,81441.4453125,0.487548828125,0.809814453125,0.333740234375,-1.9531248807907104,-0.0915527269244194,0.7019042372703552,80.0,1085.0,1.0
5689.9344708,82242.890625,82338.9140625,82946.5234375,82524.34375,82466.8515625,82544.640625,82731.9453125,82844.953125,0.48583984375,0.810302734375,0.33349609375,-2.014159917831421,-0.0915527269244194,0.6713866591453552,80.0,1086.0,1.0
5689.9382407,82851.0390625,82946.703125,83555.1171875,83132.21875,83075.0,83153.140625,83340.0,83453.1953125,0.485595703125,0.810546875,0.3330078125,-2.014159917831421,-0.1220703050494194,0.7019042372703552,80.0,1087.0,1.0
5689.9663354,81635.640625,81731.3046875,82339.359375,81917.2734375,81859.6015625,81937.296875,82124.421875,82237.4375,0.4853515625,0.810546875,0.3349609375,-1.9836424589157104,-0.2136230319738388,0.8239745497703552,80.0,1088.0,1.0
5689.9663446,80975.28125,81070.3203125,81678.640625,81256.5546875,81198.9765625,81276.3125,81463.890625,81576.6328125,0.486572265625,0.810302734375,0.3359375,-1.9531248807907104,-0.2441406100988388,0.7324218153953552,80.0,1089.0,1.0
5689.9682371,82225.0078125,82320.3203125,82929.0,82506.640625,82449.0625,82526.578125,82714.15625,82826.984375,0.486572265625,0.810546875,0.334228515625,-1.9836424589157104,-0.1831054538488388,0.7934569716453552,80.0,1090.0,1.0
5689.970739,83138.8359375,83234.7734375,83843.2734375,83420.2890625,83362.625,83441.03125,83628.25,83741.3515625,0.486572265625,0.811279296875,0.333984375,-1.9226073026657104,-0.2136230319738388,0.6103515028953552,80.0,1091.0,1.0
5689.9732251,82131.4921875,82227.2421875,82835.390625,82412.5859375,82355.1875,82433.0625,82620.453125,82733.46875,0.485107421875,0.810302734375,0.3330078125,-1.9531248807907104,-0.2136230319738388,0.7324218153953552,80.0,1092.0,1.0
5689.9757367,81182.5234375,81277.921875,81885.9765625,81463.3515625,81406.21875,81483.6484375,81670.8671875,81783.78125,0.48681640625,0.810791015625,0.336181640625,-2.014159917831421,-0.3051757514476776,0.6713866591453552,80.0,1093.0,1.0
5689.978241,82196.21875,82291.9765625,82900.5703125,82477.4921875,82419.9140625,82498.59375,82685.453125,82798.2890625,0.487548828125,0.810546875,0.3349609375,-2.014159917831421,-0.2136230319738388,0.8544921278953552,80.0,1094.0,1.0
5689.9807352,83355.0234375,83451.40625,84060.0,83636.65625,83579.2578125,83658.0234375,83844.796875,83958.0703125,0.48828125,0.810791015625,0.33544921875,-2.044677495956421,-0.1831054538488388,0.8239745497703552,80.0,1095.0,1.0
5689.9832321,82628.0546875,82723.8984375,83331.953125,82909.2421875,82851.9296875,82930.1640625,83116.9296875,83229.9453125,0.486572265625,0.810791015625,0.33544921875,-2.014159917831421,-0.1220703050494194,0.7324218153953552,80.0,1096.0,1.0
5689.9857439,81454.9453125,81550.4296875,82158.21875,81735.59375,81678.375,81756.15625,81943.6484375,82056.296875,0.484619140625,0.809814453125,0.33447265625,-1.9836424589157104,-0.1525878757238388,0.7934569716453552,80.0,1097.0,1.0
5689.988826,82166.265625,82262.203125,82870.2578125,82447.453125,82390.234375,82467.9296875,82655.4140625,82768.3359375,0.486328125,0.810302734375,0.333740234375,-1.9531248807907104,-0.2441406100988388,0.7324218153953552,80.0,1098.0,1.0
5689.9888299,83509.4296875,83605.71875,84214.046875,83791.0625,83733.5703125,83811.8046875,83998.6640625,84112.125,0.486328125,0.809814453125,0.333984375,-2.044677495956421,-0.1220703050494194,0.7019042372703552,80.0,1099.0,1.0
5689.9907278,83113.0,83209.203125,83817.6171875,83394.1875,83337.4140625,83415.4609375,83602.5,83715.6875,0.487060546875,0.810791015625,0.33642578125,-1.9531248807907104,-0.1525878757238388,0.6103515028953552,80.0,1100.0,1.0
5689.9944732,81795.5,81891.25,82499.3984375,82076.328125,82019.8203125,82097.421875,82284.1953125,82397.4765625,0.48583984375,0.81201171875,0.337158203125,-1.9226073026657104,-0.2441406100988388,0.7324218153953552,80.0,1101.0,1.0
5690.0063227,82154.375,82249.953125,82857.921875,82435.5625,82378.5234375,82456.3046875,82642.984375,82756.3515625,0.486083984375,0.810546875,0.335205078125,-1.8615721464157104,-0.2746581733226776,0.7629393935203552,80.0,1102.0,1.0
5690.0063329,83599.375,83695.0390625,84303.3671875,83880.5546875,83823.4296875,83901.5703125,84088.25,84201.6171875,0.48583984375,0.810546875,0.337158203125,-1.9836424589157104,-0.2136230319738388,0.8239745497703552,80.0,1103.0,1.0
5690.0088134,83561.109375,83656.953125,84265.7265625,83842.6484375,83785.3359375,83863.75,84050.4296875,84163.890625,0.48828125,0.81201171875,0.335205078125,-1.9531248807907104,-0.1831054538488388,0.7934569716453552,80.0,1104.0,1.0
5690.0088205,82190.5859375,82286.25,82894.484375,82472.0390625,82414.4609375,82492.6015625,82679.375,82792.921875,0.48681640625,0.810302734375,0.335693359375,-1.9226073026657104,-0.1220703050494194,0.7934569716453552,80.0,1105.0,1.0
5690.0107165,82179.6796875,82275.703125,82883.4921875,82461.21875,82403.375,82481.4296875,82668.2890625,82781.4765625,0.487548828125,0.811767578125,0.333984375,-1.9226073026657104,-0.1831054538488388,0.7629393935203552,80.0,1106.0,1.0
5690.0194738,83637.7265625,83733.9296875,84342.4375,83919.5390625,83862.046875,83940.4609375,84127.234375,84240.6875,0.48779296875,0.810791015625,0.33837890625,-1.9531248807907104,-0.2136230319738388,0.8239745497703552,80.0,1107.0,1.0
5690.0238175,83956.9140625,84053.109375,84661.9765625,84238.71875,84181.5,84259.734375,84446.859375,84560.140625,0.48583984375,0.81005859375,0.339111328125,-1.8920897245407104,-0.0915527269244194,0.8850097060203552,80.0,1108.0,1.0
5690.023824,82630.2890625,82726.3125,83334.28125,82911.65625,82854.8828125,82932.3984375,83119.5234375,83232.4453125,0.486083984375,0.809326171875,0.33642578125,-1.9836424589157104,-0.1220703050494194,0.7934569716453552,80.0,1109.0,1.0
5690.0319766,82258.265625,82353.9296875,82961.8984375,82539.453125,82482.59375,82560.28125,82746.96875,82860.421875,0.488037109375,0.81005859375,0.333740234375,-2.014159917831421,-0.2441406100988388,0.6713866591453552,80.0,1110.0,1.0
5690.038823,83640.3203125,83736.4375,84345.1171875,83922.3125,83864.734375,83943.5,84129.828125,84243.546875,0.487548828125,0.810302734375,0.338623046875,-2.014159917831421,-0.3051757514476776,0.7019042372703552,80.0,1111.0,1.0
5690.0388286,84297.1953125,84393.3046875,85002.171875,84579.2734375,84521.4296875,84600.1015625,84786.875,84900.2421875,0.487060546875,0.807861328125,0.337158203125,-2.044677495956421,-0.2746581733226776,0.7934569716453552,80.0,1112.0,1.0
5690.0407171,83107.6328125,83204.1015625,83811.8046875,83389.265625,83331.6875,83410.1015625,83597.140625,83709.96875,0.48583984375,0.809326171875,0.3359375,-1.9836424589157104,-0.2136230319738388,0.7019042372703552,80.0,1113.0,1.0
5690.0469776,82399.0859375,82495.109375,83102.984375,82680.265625,82622.6875,82700.8359375,82888.140625,83001.328125,0.48681640625,0.811279296875,0.33837890625,-1.9836424589157104,-0.2136230319738388,0.7629393935203552,80.0,1114.0,1.0
5690.0600633,83615.9140625,83712.1171875,84320.7109375,83897.453125,83839.96875,83918.5546875,84105.0625,84218.78125,0.48583984375,0.810302734375,0.337646484375,-2.014159917831421,-0.1525878757238388,0.7629393935203552,80.0,1115.0,1.0
5690.0600706,84569.078125,84665.375,85274.3203125,84851.15625,84793.40625,84871.8984375,85058.9453125,85172.4921875,0.486328125,0.812255859375,0.333740234375,-2.014159917831421,-0.2136230319738388,0.7019042372703552,80.0,1116.0,1.0
5690.0625569,83600.1796875,83696.0234375,84304.703125,83881.71875,83823.875,83902.28125,84089.4140625,84202.9609375,0.486328125,0.8125,0.337158203125,-1.9531248807907104,-0.2441406100988388,0.7019042372703552,80.0,1117.0,1.0
5690.0625609,82609.4609375,82705.390625,83313.2734375,82890.8203125,82833.2421875,82911.3828125,83098.421875,83211.34375,0.487060546875,0.81201171875,0.33837890625,-2.014159917831421,-0.2746581733226776,0.7934569716453552,80.0,1118.0,1.0
5690.0644683,83578.984375,83675.1875,84283.6953125,83860.7109375,83803.3125,83881.359375,84068.671875,84181.9453125,0.48876953125,0.811279296875,0.3349609375,-1.9226073026657104,-0.1831054538488388,0.7629393935203552,80.0,1119.0,1.0
5690.0682381,84770.3359375,84866.984375,85475.84375,85052.5078125,84995.015625,85073.6015625,85260.375,85373.921875,0.487548828125,0.8095703125,0.333740234375,-1.9531248807907104,-0.2136230319738388,0.7629393935203552,80.0,1120.0,1.0
5690.086989,84093.34375,84189.4609375,84797.875,84374.7109375,84317.3125,84395.8125,84582.4921875,84696.3046875,0.4873046875,0.81005859375,0.33544921875,-1.9531248807907104,-0.2136230319738388,0.7324218153953552,80.0,1121.0,1.0
5690.0900595,82890.015625,82985.859375,83593.828125,83171.3828125,83113.890625,83192.125,83378.71875,83492.3515625,0.48681640625,0.810546875,0.3330078125,-1.9226073026657104,-0.1831054538488388,0.7324218153953552,80.0,1122.0,1.0
5690.0900649,83545.7265625,83641.84375,84250.4375,83827.625,83770.2265625,83848.4609375,84035.234375,84148.6015625,0.48486328125,0.81005859375,0.334228515625,-1.9531248807907104,-0.1220703050494194,0.7629393935203552,80.0,1123.0,1.0
5690.0919691,84907.0390625,85003.953125,85612.4609375,85189.5625,85132.1640625,85211.0234375,85397.8828125,85510.890625,0.486083984375,0.810302734375,0.332763671875,-1.9531248807907104,-0.2441406100988388,0.7934569716453552,80.0,1124.0,1.0
5690.0944979,84566.6640625,84662.9609375,85271.1953125,84848.4765625,84791.2578125,84869.84375,85056.703125,85169.8984375,0.486572265625,0.810546875,0.3359375,-2.014159917831421,-0.2441406100988388,0.7019042372703552,80.0,1125.0,1.0
5690.0969838,83234.59375,83330.796875,83938.4921875,83516.2265625,83458.6484375,83536.7890625,83723.9140625,83837.1953125,0.48681640625,0.81103515625,0.335693359375,-2.014159917831421,-0.2136230319738388,0.7019042372703552,80.0,1126.0,1.0
5690.0994715,83537.953125,83634.328125,84242.390625,83819.9375,83762.09375,83840.5,84027.71875,84141.0,0.486083984375,0.811767578125,0.33837890625,-1.9836424589157104,-0.2136230319738388,0.7934569716453552,80.0,1127.0,1.0
5690.1032284,84986.4296875,85083.53125,85691.9453125,85268.9609375,85211.3828125,85290.328125,85477.546875,85590.6484375,0.486328125,0.8115234375,0.33642578125,-1.9836424589157104,-0.1220703050494194,0.7324218153953552,80.0,1128.0,1.0
5690.1125543,85007.0,85103.6484375,85712.328125,85289.34375,85231.765625,85310.53125,85497.5703125,85610.8515625,0.4853515625,0.810302734375,0.33740234375,-2.014159917831421,-0.2136230319738388,0.6713866591453552,80.0,1129.0,1.0
5690.1125595,83637.7265625,83733.484375,84342.4375,83919.5390625,83862.046875,83940.1953125,84127.4140625,84240.8671875,0.486083984375,0.808837890625,0.336181640625,-2.105712652206421,-0.2136230319738388,0.6408690810203552,80.0,1130.0,1.0
5690.1146313,83570.4921875,83666.25,84275.3828125,83852.21875,83794.8125,83872.8671875,84060.265625,84173.3671875,0.4853515625,0.810546875,0.3369140625,-1.9836424589157104,-0.1525878757238388,0.7629393935203552,80.0,1131.0,1.0
5690.1232205,85021.9296875,85118.21875,85727.5234375,85304.3671875,85246.7890625,85324.75,85512.4140625,85625.6015625,0.487060546875,0.81005859375,0.33447265625,-2.044677495956421,-0.1831054538488388,0.6713866591453552,80.0,1132.0,1.0
5690.1263101,85396.09375,85492.5625,86101.6953125,85678.625,85620.6875,85699.3671875,85886.8515625,86000.0390625,0.487548828125,0.812744140625,0.3359375,-2.044677495956421,-0.1831054538488388,0.6713866591453552,80.0,1133.0,1.0
5690.1263171,84085.2109375,84181.0546875,84789.5546875,84366.5703125,84308.9921875,84387.3203125,84574.890625,84687.8125,0.488037109375,0.81005859375,0.33642578125,-1.9836424589157104,-0.0610351525247097,0.7629393935203552,80.0,1134.0,1.0
5690.128231,83657.578125,83753.78125,84362.015625,83939.390625,83881.8984375,83959.7734375,84147.2578125,84260.1796875,0.48828125,0.8125,0.3349609375,-1.8920897245407104,-0.1831054538488388,0.6713866591453552,80.0,1135.0,1.0
5690.1413081,85019.15625,85115.71875,85724.3046875,85301.5,85243.65625,85322.421875,85509.8203125,85622.4765625,0.4892578125,0.810546875,0.335205078125,-1.8920897245407104,-0.0915527269244194,0.7629393935203552,80.0,1136.0,1.0
5690.1413145,85721.265625,85817.6484375,86426.6015625,86003.796875,85945.6796875,86024.5390625,86212.0234375,86325.2109375,0.484619140625,0.8115234375,0.336669921875,-1.9226073026657104,-0.1831054538488388,0.6408690810203552,80.0,1137.0,1.0
5690.1457185,84560.140625,84655.984375,85264.6640625,84841.953125,84784.4609375,84862.875,85050.09375,85163.1875,0.486328125,0.810791015625,0.3388671875,-1.9226073026657104,-0.2746581733226776,0.6103515028953552,80.0,1138.0,1.0
5690.1482366,83804.296875,83900.3203125,84508.5546875,84085.75,84028.34375,84106.578125,84293.8828125,84406.71875,0.485595703125,0.81103515625,0.334716796875,-1.9226073026657104,-0.2441406100988388,0.7019042372703552,80.0,1139.0,1.0
5690.151314,84983.84375,85080.21875,85689.171875,85265.828125,85208.34375,85286.84375,85474.234375,85587.3359375,0.48779296875,0.8125,0.336181640625,-1.9836424589157104,-0.1525878757238388,0.7324218153953552,80.0,1140.0,1.0
5690.1513198,85974.734375,86071.1171875,86680.78125,86257.265625,86199.7734375,86278.71875,86465.578125,86579.21875,0.484375,0.810302734375,0.3359375,-2.075195074081421,-0.1525878757238388,0.7019042372703552,80.0,1141.0,1.0
5690.1607442,85050.71875,85146.828125,85755.8671875,85332.796875,85275.125,85353.625,85540.84375,85654.2109375,0.48583984375,0.8115234375,0.334228515625,-2.044677495956421,-0.1831054538488388,0.7629393935203552,80.0,1142.0,1.0
5690.1638098,84022.0859375,84117.7578125,84726.4375,84303.8984375,84246.140625,84324.4609375,84511.7734375,84624.6015625,0.485595703125,0.81201171875,0.33349609375,-2.014159917831421,-0.1220703050494194,0.7629393935203552,80.0,1143.0,1.0
5690.1638163,84943.875,85039.71875,85648.671875,85225.59375,85168.109375,85246.4296875,85433.828125,85546.921875,0.485107421875,0.810302734375,0.3359375,-1.9836424589157104,-0.0915527269244194,0.6713866591453552,80.0,1144.0,1.0
5690.1694729,86161.953125,86257.9765625,86867.5546875,86443.9453125,86386.453125,86465.3125,86652.265625,86765.8984375,0.48583984375,0.80859375,0.3349609375,-1.9531248807907104,-0.1525878757238388,0.7629393935203552,80.0,1145.0,1.0
5690.1732389,85534.5859375,85630.5234375,86240.0078125,85816.6640625,85758.8203125,85837.6796875,86024.8046875,86138.0859375,0.485595703125,0.8095703125,0.334228515625,-1.9531248807907104,-0.0915527269244194,0.7324218153953552,80.0,1146.0,1.0
5690.1819878,84304.796875,84400.1015625,85009.140625,84586.515625,84528.4921875,84606.8984375,84794.3828125,84907.484375,0.48583984375,0.809326171875,0.33642578125,-1.9836424589157104,-0.1220703050494194,0.7019042372703552,80.0,1147.0,1.0
5690.1863174,84906.0546875,85001.8125,85611.2109375,85188.2265625,85130.109375,85208.6953125,85396.2734375,85509.5546875,0.48583984375,0.810546875,0.337890625,-1.9531248807907104,-0.2136230319738388,0.7324218153953552,80.0,1148.0,1.0
5690.1863264,86283.3671875,86379.9296875,86989.328125,86566.5234375,86508.140625,86587.0,86774.3046875,86887.9375,0.48583984375,0.812255859375,0.337646484375,-1.9836424589157104,-0.2136230319738388,0.6713866591453552,80.0,1149.0,1.0
5690.1925684,85998.25,86094.453125,86703.671875,86280.953125,86223.0234375,86301.7890625,86488.9140625,86602.1953125,0.485595703125,0.810546875,0.335205078125,-1.9836424589157104,-0.1220703050494194,0.7324218153953552,80.0,1150.0,1.0
5690.1925755,84652.6796875,84748.5234375,85357.3828125,84935.109375,84877.359375,84955.6796875,85142.8984375,85256.171875,0.485595703125,0.810546875,0.337646484375,-2.044677495956421,-0.1831054538488388,0.7629393935203552,80.0,1151.0,1.0
5690.1944871,84897.4765625,84993.5859375,85602.625,85179.90625,85122.0625,85200.5625,85387.78125,85501.0625,0.486572265625,0.810546875,0.337158203125,-1.9226073026657104,-0.1220703050494194,0.7629393935203552,80.0,1152.0,1.0
5690.1982226,86350.3359375,86446.625,87056.0234375,86633.0390625,86574.8359375,86654.234375,86841.1796875,86954.4609375,0.486083984375,0.8115234375,0.336669921875,-1.9531248807907104,-0.2441406100988388,0.7019042372703552,80.0,1153.0,1.0
5690.2119779,86421.5078125,86517.6171875,87127.4609375,86704.2109375,86646.09375,86725.3125,86912.3515625,87025.71875,0.486328125,0.81201171875,0.3359375,-2.014159917831421,-0.2136230319738388,0.6103515028953552,80.0,1154.0,1.0
5690.2150576,85054.921875,85150.765625,85759.890625,85337.4453125,85279.2421875,85357.6484375,85544.9609375,85658.4140625,0.486083984375,0.8134765625,0.336181640625,-1.9531248807907104,-0.3051757514476776,0.7324218153953552,80.0,1155.0,1.0
5690.2150622,84930.1953125,85026.3984375,85635.4375,85212.8125,85154.515625,85233.1953125,85420.4140625,85533.875,0.486572265625,0.81103515625,0.33203125,-2.014159917831421,-0.2441406100988388,0.7629393935203552,80.0,1156.0,1.0
5690.2263107,86372.2421875,86468.890625,87078.46875,86655.5703125,86597.1015625,86676.2265625,86863.4453125,86976.71875,0.4873046875,0.80859375,0.334228515625,-2.044677495956421,-0.2441406100988388,0.7934569716453552,80.0,1157.0,1.0
5690.2263184,86796.2109375,86892.6796875,87502.6171875,87079.359375,87020.7109375,87100.1015625,87287.234375,87400.78125,0.487548828125,0.811279296875,0.33642578125,-2.044677495956421,-0.2746581733226776,0.6713866591453552,80.0,1158.0,1.0
5690.2325452,85501.953125,85598.2421875,86207.28125,85784.75,85726.453125,85805.046875,85992.4375,86105.71875,0.486328125,0.8115234375,0.334228515625,-1.9531248807907104,-0.2441406100988388,0.5798339247703552,80.0,1159.0,1.0
5690.2325494,85019.515625,85115.5390625,85724.3984375,85301.6796875,85243.921875,85322.3359375,85510.0859375,85623.1015625,0.485595703125,0.809814453125,0.33544921875,-2.014159917831421,-0.2746581733226776,0.7324218153953552,80.0,1160.0,1.0
5690.2350633,86355.8828125,86452.3515625,87061.65625,86638.5859375,86580.5625,86659.6875,86847.078125,86960.0,0.48583984375,0.80810546875,0.335693359375,-1.9226073026657104,-0.2136230319738388,0.7629393935203552,80.0,1161.0,1.0
5690.2350701,87103.5,87200.4140625,87810.265625,87386.921875,87328.625,87407.9296875,87595.0625,87708.3359375,0.486083984375,0.808349609375,0.33349609375,-1.9531248807907104,-0.2441406100988388,0.7934569716453552,80.0,1162.0,1.0
5690.2482142,85973.578125,86070.1328125,86679.890625,86256.546875,86198.703125,86277.5625,86464.953125,86577.96875,0.484619140625,0.807861328125,0.333740234375,-1.8920897245407104,-0.2441406100988388,0.7629393935203552,80.0,1163.0,1.0
5690.253832,85172.4921875,85268.6875,85878.0,85454.921875,85397.4375,85475.6640625,85663.15625,85776.2578125,0.486083984375,0.808837890625,0.33447265625,-1.9836424589157104,-0.2441406100988388,0.6103515028953552,80.0,1164.0,1.0
5690.2538384,86318.328125,86414.9765625,87024.640625,86601.3046875,86543.546875,86622.3125,86809.171875,86922.8984375,0.486083984375,0.809326171875,0.334716796875,-1.8920897245407104,-0.2746581733226776,0.6713866591453552,80.0,1165.0,1.0
5690.2563173,87343.3828125,87440.4765625,88050.0546875,87627.0703125,87569.1328125,87648.1640625,87835.296875,87948.578125,0.48583984375,0.809814453125,0.335693359375,-2.014159917831421,-0.3051757514476776,0.7629393935203552,80.0,1166.0,1.0
5690.2563222,86460.578125,86557.578125,87167.15625,86743.9921875,86686.0625,86764.828125,86952.2265625,87065.234375,0.486572265625,0.81005859375,0.33447265625,-1.9836424589157104,-0.2136230319738388,0.7629393935203552,80.0,1167.0,1.0
5690.2694725,85397.4375,85493.7265625,86103.125,85680.140625,85622.5625,85700.796875,85888.28125,86001.2890625,0.489013671875,0.81103515625,0.336181640625,-1.9836424589157104,-0.1831054538488388,0.6713866591453552,80.0,1168.0,1.0
5690.2738057,86271.75,86368.3046875,86978.2421875,86554.453125,86496.6953125,86575.8203125,86763.0390625,86876.140625,0.48583984375,0.81103515625,0.33984375,-2.014159917831421,-0.2136230319738388,0.7629393935203552,80.0,1169.0,1.0
5690.2738102,87515.6640625,87612.4921875,88222.875,87799.0,87740.8828125,87820.3671875,88007.671875,88121.21875,0.48681640625,0.810546875,0.334228515625,-2.044677495956421,-0.1525878757238388,0.7019042372703552,80.0,1170.0,1.0
5690.285063,86935.6875,87032.15625,87642.359375,87218.921875,87160.5390625,87239.578125,87426.9765625,87540.4296875,0.48583984375,0.810791015625,0.332763671875,-2.105712652206421,-0.1525878757238388,0.7629393935203552,80.0,1171.0,1.0
5690.2850707,85682.2890625,85778.7578125,86388.421875,85964.90625,85907.0546875,85986.09375,86173.0390625,86286.3203125,0.485595703125,0.810546875,0.335205078125,-2.044677495956421,-0.0915527269244194,0.7629393935203552,80.0,1172.0,1.0
5690.2875523,86232.5,86329.5078125,86938.8125,86515.7421875,86457.8046875,86536.6640625,86723.703125,86836.9765625,0.486328125,0.809814453125,0.3349609375,-2.044677495956421,-0.1525878757238388,0.7324218153953552,80.0,1173.0,1.0
5690.2875565,87624.4765625,87721.5703125,88331.6875,87908.34375,87850.140625,87928.9921875,88116.484375,88229.578125,0.486083984375,0.809814453125,0.332763671875,-2.014159917831421,-0.0915527269244194,0.6408690810203552,80.0,1174.0,1.0
5690.3013054,87389.875,87486.7890625,88096.9921875,87673.5625,87615.53125,87694.3046875,87881.7890625,87995.0703125,0.486083984375,0.8115234375,0.3330078125,-2.075195074081421,-0.1831054538488388,0.7019042372703552,80.0,1175.0,1.0
5690.3013114,86038.21875,86134.7734375,86744.171875,86321.28125,86262.8984375,86342.3828125,86529.5078125,86642.6953125,0.487060546875,0.8125,0.332763671875,-2.044677495956421,-0.2746581733226776,0.7019042372703552,80.0,1176.0,1.0
5690.3037983,86225.96875,86322.53125,86932.015625,86509.2109375,86450.6484375,86530.046875,86717.53125,86830.359375,0.487548828125,0.81201171875,0.334716796875,-2.014159917831421,-0.2441406100988388,0.6713866591453552,80.0,1177.0,1.0
5690.3038021,87682.6796875,87779.6875,88389.7109375,87966.546875,87907.8046875,87987.5546875,88174.8671875,88287.9609375,0.486328125,0.809814453125,0.33642578125,-2.014159917831421,-0.2441406100988388,0.7629393935203552,80.0,1178.0,1.0
5690.3150641,87805.6171875,87902.6171875,88512.8203125,88089.390625,88031.1015625,88110.4921875,88297.53125,88411.1640625,0.486328125,0.81201171875,0.337158203125,-1.9836424589157104,-0.3051757514476776,0.7629393935203552,80.0,1179.0,1.0
5690.315071,86445.109375,86541.578125,87151.2421875,86728.171875,86670.0546875,86749.1796875,86936.1328125,87049.5859375,0.487548828125,0.80859375,0.338623046875,-1.9226073026657104,-0.2746581733226776,0.7934569716453552,80.0,1180.0,1.0
5690.317551,86263.8828125,86360.078125,86970.1015625,86546.5859375,86488.5625,86567.6875,86754.90625,86868.1796875,0.485107421875,0.80810546875,0.338134765625,-1.9226073026657104,-0.2136230319738388,0.8239745497703552,80.0,1181.0,1.0
5690.3175575,87694.3046875,87791.21875,88401.3359375,87977.71875,87919.515625,87998.9140625,88186.3046875,88299.5859375,0.48388671875,0.811767578125,0.337646484375,-2.014159917831421,-0.1525878757238388,0.7019042372703552,80.0,1182.0,1.0
5690.3232198,88167.53125,88264.09375,88874.203125,88450.8671875,88392.75,88472.140625,88659.453125,88772.7265625,0.486083984375,0.810546875,0.336181640625,-2.014159917831421,-0.1831054538488388,0.7934569716453552,80.0,1183.0,1.0
5690.3275683,86892.5,86988.96875,87598.8125,87175.3828125,87117.359375,87196.3046875,87384.0625,87496.890625,0.485595703125,0.810302734375,0.331787109375,-2.014159917831421,-0.2441406100988388,0.7934569716453552,80.0,1184.0,1.0
5690.327574,86358.7421875,86455.2109375,87064.609375,86641.4453125,86583.421875,86662.453125,86850.03125,86962.953125,0.484375,0.81005859375,0.334716796875,-2.014159917831421,-0.2136230319738388,0.8850097060203552,80.0,1185.0,1.0
5690.3382363,87673.203125,87770.03125,88379.7890625,87956.4453125,87898.2421875,87978.171875,88165.03125,88278.3046875,0.48583984375,0.81103515625,0.335205078125,-2.075195074081421,-0.2746581733226776,0.8850097060203552,80.0,1186.0,1.0
5690.34131,88462.0390625,88559.40625,89169.25,88745.90625,88687.4375,88767.6328125,88954.671875,89067.953125,0.48583984375,0.809814453125,0.3310546875,-1.9836424589157104,-0.3051757514476776,0.7324218153953552,80.0,1187.0,1.0
5690.341319,87364.75,87461.9296875,88071.328125,87647.9921875,87589.875,87669.4453125,87856.578125,87970.03125,0.486083984375,0.810302734375,0.333740234375,-2.014159917831421,-0.1220703050494194,0.7629393935203552,80.0,1188.0,1.0
5690.3470414,86517.3515625,86614.265625,87223.75,86800.3203125,86742.296875,86821.6015625,87008.546875,87122.0078125,0.487060546875,0.809326171875,0.3359375,-1.9531248807907104,-0.03051757626235485,0.7629393935203552,80.0,1189.0,1.0
5690.3513113,87624.03125,87721.125,88331.4140625,87907.625,87849.3359375,87928.90625,88116.03125,88229.4921875,0.48486328125,0.811279296875,0.3359375,-2.105712652206421,-0.0915527269244194,0.7324218153953552,80.0,1190.0,1.0
5690.3513196,88687.1640625,88784.7109375,89395.2734375,88971.390625,88912.7421875,88992.671875,89179.796875,89293.34375,0.485107421875,0.808837890625,0.33837890625,-1.9531248807907104,-0.0915527269244194,0.6713866591453552,80.0,1191.0,1.0
5690.361975,87845.0390625,87941.9609375,88552.0703125,88128.7265625,88070.2578125,88149.921875,88337.046875,88450.328125,0.48486328125,0.81005859375,0.335205078125,-2.014159917831421,-0.1831054538488388,0.7324218153953552,80.0,1192.0,1.0
5690.3650555,86747.390625,86843.59375,87453.7109375,87030.1875,86972.0703125,87051.5546875,87238.5078125,87352.140625,0.486572265625,0.808837890625,0.3359375,-1.9836424589157104,-0.1831054538488388,0.7324218153953552,80.0,1193.0,1.0
5690.3650613,87574.5,87671.859375,88281.8828125,87858.3671875,87799.984375,87879.5546875,88066.4140625,88180.3203125,0.48583984375,0.8095703125,0.334228515625,-1.9836424589157104,-0.3051757514476776,0.7019042372703552,80.0,1194.0,1.0
5690.3669642,88845.8671875,88943.5859375,89553.875,89130.0,89071.2578125,89151.453125,89338.9453125,89451.953125,0.48681640625,0.811279296875,0.333984375,-2.044677495956421,-0.3356933295726776,0.8544921278953552,80.0,1195.0,1.0
5690.3769842,88315.4140625,88412.328125,89022.7109375,88599.0078125,88540.453125,88620.2890625,88807.8671875,88921.0546875,0.486328125,0.81103515625,0.3359375,-2.044677495956421,-0.3051757514476776,0.7019042372703552,80.0,1196.0,1.0
5690.3794869,87044.1328125,87140.78125,87750.71875,87327.46875,87269.0859375,87348.296875,87535.6015625,87648.8828125,0.48681640625,0.809326171875,0.336669921875,-1.9836424589157104,-0.2136230319738388,0.7019042372703552,80.0,1197.0,1.0
5690.388807,87537.484375,87634.6640625,88244.421875,87821.171875,87762.875,87842.453125,88028.953125,88142.6796875,0.48779296875,0.81005859375,0.335205078125,-1.9531248807907104,-0.2136230319738388,0.7324218153953552,80.0,1198.0,1.0
5690.3888136,88944.9296875,89042.3828125,89653.2109375,89229.328125,89171.0390625,89251.0546875,89437.46875,89551.375,0.48681640625,0.81005859375,0.3359375,-2.044677495956421,-0.1525878757238388,0.7324218153953552,80.0,1199.0,1.0
5690.391308,88763.6953125,88860.9765625,89471.890625,89047.8359375,88989.2734375,89069.6484375,89256.2421875,89369.7890625,0.487548828125,0.809326171875,0.33447265625,-2.014159917831421,-0.2136230319738388,0.7629393935203552,80.0,1200.0,1.0
5690.3913149,87404.0,87501.0078125,88111.203125,87687.59375,87628.9453125,87708.9609375,87895.6484375,88009.375,0.488037109375,0.8095703125,0.335205078125,-2.075195074081421,-0.1525878757238388,0.7324218153953552,80.0,1201.0,1.0
5690.3994711,87533.640625,87630.734375,88240.671875,87817.7734375,87758.8515625,87838.6015625,88025.5546875,88139.28125,0.487060546875,0.80859375,0.333740234375,-2.014159917831421,-0.2441406100988388,0.7629393935203552,80.0,1202.0,1.0
5690.4019792,88990.1640625,89087.6171875,89698.359375,89274.9296875,89216.1015625,89296.296875,89483.0703125,89596.6171875,0.48486328125,0.81103515625,0.336669921875,-2.075195074081421,-0.3356933295726776,0.8239745497703552,80.0,1203.0,1.0
5690.4057155,89166.296875,89263.84375,89874.3984375,89450.609375,89392.140625,89472.3359375,89659.1953125,89772.8359375,0.486083984375,0.81005859375,0.335693359375,-2.075195074081421,-0.2441406100988388,0.8239745497703552,80.0,1204.0,1.0
5690.4150509,87812.0546875,87909.1484375,88518.9921875,88095.921875,88037.5390625,88117.2890625,88304.0546875,88417.9609375,0.487060546875,0.809814453125,0.336669921875,-1.9836424589157104,-0.1831054538488388,0.8239745497703552,80.0,1205.0,1.0
5690.4150581,87572.6171875,87669.5390625,88279.7421875,87856.3046875,87798.1015625,87877.9453125,88064.359375,88178.171875,0.487548828125,0.80908203125,0.3369140625,-2.014159917831421,-0.1525878757238388,0.7324218153953552,80.0,1206.0,1.0
5690.4194709,88990.6171875,89088.0703125,89699.078125,89274.75,89216.546875,89296.5625,89483.3359375,89597.0625,0.487548828125,0.80908203125,0.336181640625,-1.9226073026657104,-0.1831054538488388,0.7934569716453552,80.0,1207.0,1.0
5690.423816,89512.390625,89610.296875,90220.9453125,89796.9765625,89738.59375,89818.8828125,90005.6484375,90119.109375,0.4853515625,0.81005859375,0.3359375,-1.9226073026657104,-0.2136230319738388,0.7934569716453552,80.0,1208.0,1.0
5690.4238229,88258.90625,88356.2734375,88966.4765625,88543.0390625,88484.65625,88564.4140625,88751.2734375,88865.0859375,0.48583984375,0.81005859375,0.335205078125,-1.9226073026657104,-0.3051757514476776,0.7934569716453552,80.0,1209.0,1.0
5690.42696,87673.7421875,87771.1953125,88381.3984375,87957.4296875,87899.3984375,87978.8828125,88165.5625,88279.46875,0.488037109375,0.81005859375,0.33349609375,-1.9531248807907104,-0.2136230319738388,0.8544921278953552,80.0,1210.0,1.0
5690.4413061,88958.25,89056.1484375,89667.0703125,89242.7421875,89183.8203125,89264.1953125,89451.0625,89564.6953125,0.488525390625,0.810546875,0.333984375,-1.9531248807907104,-0.1525878757238388,0.7629393935203552,80.0,1211.0,1.0
5690.4413125,89793.7578125,89891.65625,90503.0234375,90078.875,90019.5078125,90099.9765625,90287.015625,90400.6484375,0.489013671875,0.811279296875,0.33154296875,-2.014159917831421,-0.1831054538488388,0.8239745497703552,80.0,1212.0,1.0
5690.4432172,88728.921875,88826.015625,89436.9296875,89013.234375,88954.5859375,89034.421875,89221.1953125,89334.828125,0.487060546875,0.810791015625,0.333740234375,-1.9226073026657104,-0.1220703050494194,0.7019042372703552,80.0,1213.0,1.0
5690.4457235,87838.25,87935.1640625,88545.6328125,88122.46875,88063.5546875,88143.2109375,88330.25,88443.9765625,0.486083984375,0.809326171875,0.33740234375,-1.9226073026657104,-0.1220703050494194,0.7629393935203552,80.0,1214.0,1.0
5690.4494675,88906.390625,89004.0234375,89614.4921875,89190.796875,89131.875,89212.1640625,89399.296875,89513.015625,0.486328125,0.81005859375,0.33544921875,-1.9226073026657104,-0.1831054538488388,0.7934569716453552,80.0,1215.0,1.0
5690.4638069,90005.46875,90103.5546875,90714.6484375,90290.4140625,90231.4921875,90312.046875,90499.0,90612.7265625,0.4873046875,0.809814453125,0.3359375,-1.9836424589157104,-0.2441406100988388,0.7324218153953552,80.0,1216.0,1.0
5690.4638136,89206.4453125,89304.078125,89915.078125,89491.1171875,89432.375,89512.484375,89699.25,89813.25,0.487548828125,0.80908203125,0.3359375,-2.014159917831421,-0.0915527269244194,0.7324218153953552,80.0,1217.0,1.0
5690.4657133,88078.21875,88175.7578125,88785.875,88362.3515625,88303.875,88383.6328125,88570.4921875,88684.21875,0.487060546875,0.80908203125,0.3369140625,-2.014159917831421,-0.1525878757238388,0.7629393935203552,80.0,1218.0,1.0
5690.4682349,88857.0390625,88954.8515625,89565.59375,89141.53125,89083.0625,89162.71875,89349.7578125,89463.84375,0.48876953125,0.80810546875,0.3359375,-2.044677495956421,-0.1831054538488388,0.8544921278953552,80.0,1219.0,1.0
5690.4734728,90151.4765625,90249.4609375,90860.6484375,90436.1484375,90377.40625,90457.875,90644.734375,90758.7265625,0.4873046875,0.80810546875,0.333740234375,-1.9836424589157104,-0.2136230319738388,0.7019042372703552,80.0,1220.0,1.0
5690.4788054,89671.265625,89768.7265625,90380.0859375,89955.40625,89897.203125,89977.1328125,90164.171875,90277.984375,0.4833984375,0.810302734375,0.335693359375,-1.9531248807907104,-0.2441406100988388,0.7629393935203552,80.0,1221.0,1.0
5690.478812,88380.59375,88477.953125,89088.78125,88664.3671875,88606.4296875,88685.828125,88872.953125,88986.6796875,0.485107421875,0.810546875,0.3330078125,-2.075195074081421,-0.2441406100988388,0.7324218153953552,80.0,1222.0,1.0
5690.4807138,88819.4921875,88916.8515625,89527.59375,89103.7109375,89045.6015625,89124.9921875,89311.671875,89426.1171875,0.485107421875,0.81005859375,0.333251953125,-2.014159917831421,-0.2136230319738388,0.7324218153953552,80.0,1223.0,1.0
5690.4869712,90238.109375,90335.921875,90947.2890625,90522.6953125,90464.6640625,90544.7734375,90731.0078125,90845.453125,0.48583984375,0.810302734375,0.333740234375,-1.9836424589157104,-0.2136230319738388,0.7934569716453552,80.0,1224.0,1.0
5690.4957346,90108.9140625,90207.0859375,90817.9140625,90393.5,90334.9375,90415.40625,90601.8203125,90716.4375,0.487060546875,0.81005859375,0.33154296875,-1.9836424589157104,-0.1525878757238388,0.7324218153953552,80.0,1225.0,1.0
5690.5006594,88741.8828125,88839.515625,89449.984375,89025.5703125,88967.3671875,89047.2109375,89234.15625,89348.328125,0.4873046875,0.808349609375,0.33447265625,-1.9531248807907104,-0.1525878757238388,0.6713866591453552,80.0,1226.0,1.0
5690.5006689,88814.03125,88911.4921875,89522.40625,89098.171875,89039.6953125,89119.5390625,89306.3125,89420.3046875,0.48583984375,0.808837890625,0.33740234375,-1.9226073026657104,-0.2136230319738388,0.7324218153953552,80.0,1227.0,1.0
5690.5006731,90270.203125,90368.015625,90979.46875,90555.1484375,90496.2265625,90576.6953125,90763.1953125,90877.1875,0.48486328125,0.81005859375,0.335693359375,-1.9226073026657104,-0.2441406100988388,0.7324218153953552,80.0,1228.0,1.0
5690.5032749,90499.984375,90597.4375,91209.0703125,90784.296875,90726.0,90806.203125,90992.8828125,91106.875,0.486083984375,0.811767578125,0.339599609375,-1.8310545682907104,-0.0610351525247097,0.8239745497703552,80.0,1229.0,1.0
5690.5069755,89153.78125,89250.609375,89861.8828125,89437.734375,89379.53125,89459.1953125,89645.875,89759.9609375,0.48486328125,0.81103515625,0.33642578125,-1.8310545682907104,-0.1831054538488388,0.7324218153953552,80.0,1230.0,1.0
5690.5157184,88859.6328125,88956.4609375,89567.5546875,89143.5,89085.1171875,89164.9609375,89352.0859375,89465.8125,0.486572265625,0.808349609375,0.332275390625,-1.8310545682907104,-0.2746581733226776,0.7629393935203552,80.0,1231.0,1.0
5690.5275484,90261.53125,90358.984375,90969.90625,90545.8515625,90487.2890625,90567.6640625,90754.2578125,90868.4296875,0.486328125,0.810302734375,0.3349609375,-1.8615721464157104,-0.2441406100988388,0.6713866591453552,80.0,1232.0,1.0
5690.5275549,90832.7578125,90930.296875,91541.6640625,91117.4296875,91058.7734375,91139.15625,91325.8359375,91439.921875,0.487548828125,0.810302734375,0.33251953125,-1.8920897245407104,-0.2136230319738388,0.7019042372703552,80.0,1233.0,1.0
5690.5300454,89599.7421875,89696.5703125,90307.578125,89883.5234375,89825.046875,89905.6015625,90092.2890625,90205.921875,0.489501953125,0.810791015625,0.33154296875,-1.9531248807907104,-0.1831054538488388,0.7019042372703552,80.0,1234.0,1.0
5690.5300494,88962.8046875,89059.90625,89670.640625,89246.765625,89188.2890625,89268.4921875,89455.265625,89568.8984375,0.488037109375,0.810546875,0.3330078125,-1.9836424589157104,-0.2746581733226776,0.6408690810203552,80.0,1235.0,1.0
5690.5332283,90218.6171875,90316.6953125,90927.8828125,90503.5625,90444.8203125,90525.015625,90712.0546875,90825.9609375,0.486572265625,0.81005859375,0.3349609375,-1.9531248807907104,-0.2441406100988388,0.7629393935203552,80.0,1236.0,1.0
5690.5475532,91099.3671875,91197.265625,91808.8125,91384.0390625,91325.296875,91406.03125,91592.890625,91706.796875,0.485595703125,0.81103515625,0.33544921875,-1.9531248807907104,-0.2441406100988388,0.7934569716453552,80.0,1237.0,1.0
5690.5475609,90069.1328125,90166.765625,90777.859375,90353.265625,90295.2421875,90374.9921875,90561.9453125,90675.9375,0.486572265625,0.810546875,0.337646484375,-1.9836424589157104,-0.2441406100988388,0.7629393935203552,80.0,1238.0,1.0
5690.5500429,89139.65625,89237.109375,89847.7578125,89423.609375,89365.40625,89445.515625,89632.109375,89745.921875,0.48583984375,0.81005859375,0.33544921875,-1.9531248807907104,-0.2136230319738388,0.7019042372703552,80.0,1239.0,1.0
5690.5500478,90166.765625,90264.21875,90875.046875,90451.2578125,90392.6015625,90472.8046875,90659.484375,90773.2109375,0.4853515625,0.80810546875,0.3359375,-2.014159917831421,-0.2136230319738388,0.7629393935203552,80.0,1240.0,1.0
5690.5632195,91298.921875,91397.0,92008.28125,91584.3125,91525.2109375,91606.0390625,91792.453125,91906.625,0.486083984375,0.80810546875,0.33349609375,-2.014159917831421,-0.0915527269244194,0.7629393935203552,80.0,1241.0,1.0
5690.5681893,90543.8828125,90641.6015625,91252.7890625,90828.8203125,90769.6328125,90850.28125,91036.6953125,91151.2265625,0.486572265625,0.809326171875,0.33642578125,-1.9531248807907104,-0.1831054538488388,0.7019042372703552,80.0,1242.0,1.0
5690.5681977,89385.34375,89483.0703125,90094.1640625,89669.8359375,89611.3671875,89691.5625,89877.890625,89992.2421875,0.486328125,0.810546875,0.336669921875,-1.9531248807907104,-0.2441406100988388,0.7019042372703552,80.0,1243.0,1.0
5690.5682003,90111.953125,90209.859375,90821.3125,90396.625,90338.2421875,90418.8046875,90605.3046875,90718.9375,0.485595703125,0.808837890625,0.33544921875,-1.9226073026657104,-0.1220703050494194,0.7019042372703552,80.0,1244.0,1.0
5690.5707312,91429.4609375,91527.984375,92139.53125,91714.3984375,91656.1015625,91736.8359375,91923.4296875,92037.3359375,0.48583984375,0.80859375,0.336181640625,-1.9531248807907104,-0.1831054538488388,0.7019042372703552,80.0,1245.0,1.0
5690.5732111,91002.359375,91100.6171875,91711.71875,91287.03125,91228.5625,91309.0234375,91495.890625,91609.8828125,0.484375,0.80908203125,0.3349609375,-1.8920897245407104,-0.2441406100988388,0.7629393935203552,80.0,1246.0,1.0
5690.585143,89691.4765625,89789.1953125,90400.3828125,89976.0546875,89917.5859375,89997.6015625,90184.2890625,90298.640625,0.485107421875,0.810546875,0.336669921875,-1.9226073026657104,-0.1831054538488388,0.7934569716453552,80.0,1247.0,1.0
5690.5851509,90075.2109375,90172.6640625,90784.1171875,90359.703125,90301.3203125,90381.3359375,90568.2890625,90682.375,0.48583984375,0.810546875,0.333251953125,-1.9226073026657104,-0.1831054538488388,0.7629393935203552,80.0,1248.0,1.0
5690.6101482,91504.203125,91602.1953125,92213.828125,91788.875,91730.4921875,91810.8671875,91997.90625,92112.3515625,0.483642578125,0.810546875,0.336669921875,-1.9836424589157104,-0.1220703050494194,0.8239745497703552,80.0,1249.0,1.0
5690.6101558,91430.53125,91528.4296875,92139.8828125,91715.2890625,91656.5546875,91737.1953125,91923.96875,92038.40625,0.48486328125,0.809326171875,0.33740234375,-1.9836424589157104,-0.0610351525247097,0.7629393935203552,80.0,1250.0,1.0
5690.613188,90059.828125,90157.4609375,90768.2890625,90343.96875,90285.4921875,90365.78125,90552.5546875,90666.8125,0.487060546875,0.81005859375,0.3349609375,-1.8920897245407104,-0.1220703050494194,0.7019042372703552,80.0,1251.0,1.0
5690.6131949,90075.2109375,90172.6640625,90783.3125,90359.6171875,90301.140625,90381.3359375,90567.84375,90682.1953125,0.488525390625,0.81005859375,0.3330078125,-1.9531248807907104,-0.1220703050494194,0.7629393935203552,80.0,1252.0,1.0
5690.6131972,91525.9296875,91624.09375,92235.28125,91811.4921875,91752.484375,91833.0390625,92019.71875,92134.1640625,0.48779296875,0.810546875,0.332763671875,-1.9226073026657104,-0.1831054538488388,0.7324218153953552,80.0,1253.0,1.0
5690.6157152,91807.5625,91905.90625,92516.6484375,92092.859375,92034.03125,92114.5859375,92301.4453125,92415.703125,0.487060546875,0.810791015625,0.3330078125,-2.014159917831421,-0.1220703050494194,0.7629393935203552,80.0,1254.0,1.0
5690.6182102,90469.2265625,90567.3046875,91177.953125,90753.984375,90695.25,90775.7109375,90962.5703125,91076.4765625,0.48583984375,0.810791015625,0.33349609375,-1.9836424589157104,-0.1220703050494194,0.7934569716453552,80.0,1255.0,1.0
5690.620729,90126.0859375,90223.8046875,90834.8984375,90410.84375,90352.28125,90432.4765625,90619.1640625,90733.2421875,0.487060546875,0.809814453125,0.3369140625,-1.9836424589157104,-0.0610351525247097,0.6713866591453552,80.0,1256.0,1.0
5690.6232266,91510.546875,91608.5390625,92219.546875,91795.3984375,91736.8359375,91817.390625,92004.2578125,92118.515625,0.48681640625,0.8115234375,0.33642578125,-1.9531248807907104,-0.1220703050494194,0.7629393935203552,80.0,1257.0,1.0
5690.6257142,92127.90625,92226.1640625,92837.078125,92413.109375,92354.375,92435.109375,92621.875,92735.9609375,0.487060546875,0.810546875,0.335205078125,-1.9226073026657104,-0.1525878757238388,0.7934569716453552,80.0,1258.0,1.0
5690.628213,90919.125,91017.2890625,91627.5859375,91203.8828125,91145.140625,91225.609375,91412.6484375,91526.734375,0.485107421875,0.81005859375,0.333251953125,-1.9836424589157104,-0.2136230319738388,0.7019042372703552,80.0,1259.0,1.0
5690.6307317,90237.21875,90335.3828125,90945.6796875,90521.796875,90463.234375,90543.34375,90730.4765625,90844.375,0.486328125,0.809326171875,0.33349609375,-2.044677495956421,-0.2746581733226776,0.6713866591453552,80.0,1260.0,1.0
5690.6400439,91464.7734375,91562.671875,92173.953125,91749.625,91690.703125,91771.3515625,91958.1171875,92072.296875,0.488037109375,0.81005859375,0.332763671875,-2.014159917831421,-0.1831054538488388,0.7019042372703552,80.0,1261.0,1.0
5690.6400499,92381.1953125,92479.09375,93090.90625,92666.1328125,92607.125,92688.3046875,92874.9921875,92989.34375,0.48681640625,0.809326171875,0.33349609375,-2.136230230331421,-0.2746581733226776,0.6713866591453552,80.0,1262.0,1.0
5690.6425519,91386.71875,91484.7109375,92096.4296875,91671.75,91612.921875,91693.5625,91880.3359375,91994.6015625,0.487060546875,0.8095703125,0.3310546875,-1.9836424589157104,-0.2136230319738388,0.7324218153953552,80.0,1263.0,1.0
5690.6425595,90417.1015625,90515.0,91126.546875,90702.1328125,90643.3046875,90723.5859375,90910.453125,91024.7109375,0.488037109375,0.809814453125,0.332763671875,-2.044677495956421,-0.2136230319738388,0.7019042372703552,80.0,1264.0,1.0
5690.6482093,91405.046875,91503.125,92115.03125,91690.703125,91631.3359375,91712.0703125,91898.6640625,92013.1953125,0.48583984375,0.809814453125,0.334716796875,-1.9531248807907104,-0.1525878757238388,0.7324218153953552,80.0,1265.0,1.0
5690.6544717,92567.4296875,92665.7734375,93277.9453125,92853.0859375,92793.71875,92875.2578125,93061.578125,93175.7578125,0.48583984375,0.811279296875,0.33349609375,-2.014159917831421,-0.1831054538488388,0.7019042372703552,80.0,1266.0,1.0
5690.6638072,91857.09375,91955.4375,92566.890625,92142.1171875,92083.6484375,92164.296875,92350.796875,92465.0546875,0.4873046875,0.81005859375,0.3369140625,-1.9226073026657104,-0.2441406100988388,0.6713866591453552,80.0,1267.0,1.0
5690.6638161,90666.3671875,90764.359375,91375.1875,90951.21875,90892.8359375,90972.5859375,91159.8046875,91273.796875,0.486572265625,0.810791015625,0.337158203125,-1.8920897245407104,-0.2136230319738388,0.7019042372703552,80.0,1268.0,1.0
5690.6657201,91351.5859375,91449.9296875,92060.9375,91636.7890625,91577.78125,91658.1640625,91845.2890625,91959.1953125,0.48583984375,0.810302734375,0.33642578125,-1.9531248807907104,-0.2136230319738388,0.7324218153953552,80.0,1269.0,1.0
5690.6682306,92688.3984375,92787.28125,93398.9140625,92974.40625,92914.8671875,92996.1328125,93183.0,93296.8125,0.48681640625,0.811767578125,0.334716796875,-2.014159917831421,-0.2441406100988388,0.7629393935203552,80.0,1270.0,1.0
5690.6800649,92309.9375,92409.0859375,93020.7265625,92596.21875,92536.9453125,92617.9453125,92804.984375,92918.7109375,0.48583984375,0.809326171875,0.33544921875,-2.044677495956421,-0.2441406100988388,0.7934569716453552,80.0,1271.0,1.0
5690.6800767,90980.1875,91078.8046875,91689.9921875,91265.84375,91207.1015625,91287.390625,91474.25,91588.3359375,0.484375,0.81005859375,0.33642578125,-1.9531248807907104,-0.1831054538488388,0.7019042372703552,80.0,1272.0,1.0
5690.6819474,91312.6015625,91411.3984375,92022.2265625,91598.078125,91539.609375,91619.625,91806.6640625,91920.75,0.4853515625,0.8125,0.33447265625,-1.9531248807907104,-0.2136230319738388,0.6408690810203552,80.0,1273.0,1.0
5690.6907592,92748.4765625,92847.453125,93458.9921875,93034.3125,92975.5703125,93056.125,93243.4375,93357.4296875,0.485595703125,0.811767578125,0.337646484375,-1.9531248807907104,-0.1220703050494194,0.6713866591453552,80.0,1274.0,1.0
5690.6937995,92727.203125,92826.171875,93437.359375,93013.03125,92954.0234375,93034.7578125,93221.796875,93336.0625,0.487548828125,0.810546875,0.335205078125,-1.9836424589157104,-0.2136230319738388,0.7019042372703552,80.0,1275.0,1.0
5690.6938068,91349.6171875,91448.0546875,92059.1484375,91635.0078125,91576.265625,91656.8203125,91843.765625,91957.671875,0.487548828125,0.81005859375,0.33544921875,-2.014159917831421,-0.2136230319738388,0.7324218153953552,80.0,1276.0,1.0
5690.6957394,91311.7109375,91410.234375,92020.9765625,91596.828125,91538.3515625,91618.4609375,91805.59375,91919.5859375,0.4873046875,0.810302734375,0.3349609375,-2.044677495956421,-0.2746581733226776,0.7324218153953552,80.0,1277.0,1.0
5690.6994722,92762.25,92861.1328125,93472.40625,93047.6328125,92989.1640625,93069.8984375,93256.9375,93371.375,0.4853515625,0.810546875,0.335205078125,-2.044677495956421,-0.1831054538488388,0.7324218153953552,80.0,1278.0,1.0
5690.7082348,93098.0625,93196.765625,93808.3984375,93383.71875,93324.53125,93405.890625,93592.75,93707.28125,0.484130859375,0.8115234375,0.337158203125,-2.044677495956421,-0.2746581733226776,0.7934569716453552,80.0,1279.0,1.0
5690.7113059,91766.703125,91864.8671875,92476.1484375,92052.359375,91992.9921875,92073.90625,92260.671875,92375.1171875,0.485595703125,0.812255859375,0.33642578125,-1.9531248807907104,-0.1831054538488388,0.7629393935203552,80.0,1280.0,1.0
5690.7113133,91363.5625,91461.734375,92072.921875,91648.7734375,91589.671875,91670.40625,91857.359375,91971.625,0.486328125,0.812255859375,0.3359375,-1.9836424589157104,-0.2136230319738388,0.7019042372703552,80.0,1281.0,1.0
5690.7219758,92734.796875,92833.1484375,93444.8671875,93020.3671875,92961.1796875,93042.1796875,93229.21875,93343.2109375,0.486328125,0.81005859375,0.336181640625,-1.9836424589157104,-0.1831054538488388,0.7934569716453552,80.0,1282.0,1.0
5690.7250537,93405.9765625,93504.859375,94117.03125,93692.171875,93633.25,93714.5234375,93901.3828125,94015.5546875,0.486328125,0.810791015625,0.335205078125,-1.9226073026657104,-0.2746581733226776,0.8239745497703552,80.0,1283.0,1.0
5690.7250616,92218.65625,92317.1796875,92928.6328125,92504.3046875,92445.2109375,92526.3046875,92713.0703125,92826.890625,0.487060546875,0.810546875,0.335693359375,-1.9531248807907104,-0.1831054538488388,0.7324218153953552,80.0,1284.0,1.0
5690.7269687,91478.9921875,91577.515625,92188.5234375,91764.5546875,91705.28125,91786.1875,91973.234375,92086.78125,0.485107421875,0.81005859375,0.333984375,-2.044677495956421,-0.2746581733226776,0.7019042372703552,80.0,1285.0,1.0
5690.7407205,92680.53125,92779.5,93390.78125,92966.5390625,92907.1796875,92988.359375,93175.3046875,93289.2109375,0.488037109375,0.81005859375,0.338134765625,-2.044677495956421,-0.2441406100988388,0.7019042372703552,80.0,1286.0,1.0
5690.7438351,93644.0703125,93742.953125,94354.5859375,93930.171875,93870.71875,93952.2578125,94139.203125,94253.1953125,0.484619140625,0.8115234375,0.334228515625,-1.9226073026657104,-0.1220703050494194,0.7934569716453552,80.0,1287.0,1.0
5690.7438425,92684.28125,92782.8984375,93394.625,92969.9375,92910.84375,92992.109375,93178.796875,93292.96875,0.4853515625,0.809814453125,0.331298828125,-2.044677495956421,-0.3662109076976776,0.7629393935203552,80.0,1288.0,1.0
5690.7457418,91664.1484375,91762.40625,92373.953125,91949.09375,91890.53125,91971.0859375,92157.9453125,92272.3828125,0.4873046875,0.8095703125,0.329833984375,-2.014159917831421,-0.1831054538488388,0.7019042372703552,80.0,1289.0,1.0
5690.7507208,92609.453125,92707.9765625,93319.703125,92894.9296875,92836.2734375,92917.1015625,93103.78125,93218.1328125,0.489013671875,0.811279296875,0.33447265625,-1.9836424589157104,-0.1831054538488388,0.7324218153953552,80.0,1290.0,1.0
5690.7532203,93813.3125,93912.0234375,94523.921875,94099.328125,94040.3203125,94121.59375,94308.2734375,94422.890625,0.4873046875,0.810791015625,0.33447265625,-2.014159917831421,-0.2136230319738388,0.7934569716453552,80.0,1291.0,1.0
5690.7645868,93149.9140625,93248.890625,93860.5234375,93435.75,93377.0078125,93457.8359375,93644.6015625,93758.78125,0.487060546875,0.811767578125,0.335205078125,-2.014159917831421,-0.1525878757238388,0.8544921278953552,80.0,1292.0,1.0
5690.767547,91922.5390625,92021.2421875,92632.4296875,92208.28125,92149.359375,92229.921875,92416.6875,92531.1328125,0.486572265625,0.809814453125,0.33642578125,-2.014159917831421,-0.1831054538488388,0.6408690810203552,80.0,1293.0,1.0
5690.7675538,92551.6953125,92650.7578125,93261.9453125,92837.4375,92778.34375,92859.25,93046.203125,93160.6484375,0.487060546875,0.80908203125,0.33349609375,-1.9531248807907104,-0.2136230319738388,0.8239745497703552,80.0,1294.0,1.0
5690.7694664,93918.8125,94018.328125,94630.140625,94205.09375,94145.8203125,94227.0,94414.0390625,94528.484375,0.485595703125,0.809326171875,0.33251953125,-1.9531248807907104,-0.2136230319738388,0.8850097060203552,80.0,1295.0,1.0
5690.7788077,93596.0546875,93695.1171875,94307.2890625,93882.15625,93822.703125,93904.0625,94091.1015625,94205.3671875,0.48779296875,0.808837890625,0.33349609375,-1.9836424589157104,-0.1831054538488388,0.8544921278953552,80.0,1296.0,1.0
5690.7788168,92243.953125,92342.390625,92954.1171875,92529.4296875,92470.3359375,92550.9765625,92738.1953125,92852.28125,0.48583984375,0.810546875,0.333740234375,-2.014159917831421,-0.2746581733226776,0.7934569716453552,80.0,1297.0,1.0
5690.7807333,92514.3203125,92612.9375,93224.390625,92799.796875,92740.7890625,92821.4375,93008.4765625,93122.9140625,0.48779296875,0.808349609375,0.333740234375,-1.9836424589157104,-0.1831054538488388,0.7934569716453552,80.0,1298.0,1.0
5690.7844797,93963.0703125,94061.953125,94673.9453125,94249.265625,94189.984375,94271.3515625,94458.1171875,94572.5625,0.485595703125,0.80859375,0.333251953125,-2.014159917831421,-0.1525878757238388,0.7324218153953552,80.0,1299.0,1.0
5690.7994674,93999.015625,94098.078125,94709.796875,94285.1171875,94225.75,94307.109375,94494.1484375,94608.4140625,0.485595703125,0.808837890625,0.333984375,-2.044677495956421,-0.1831054538488388,0.7019042372703552,80.0,1300.0,1.0
5690.8025479,92623.6640625,92722.1015625,93333.6484375,92909.234375,92849.8671875,92930.9609375,93118.0859375,93232.171875,0.485107421875,0.808349609375,0.335205078125,-1.9531248807907104,-0.2136230319738388,0.7324218153953552,80.0,1301.0,1.0
5690.8025537,92523.171875,92621.96875,93232.796875,92808.5625,92749.375,92830.734375,93017.5078125,93131.5859375,0.48828125,0.809326171875,0.33203125,-1.9836424589157104,-0.2136230319738388,0.6713866591453552,80.0,1302.0,1.0
5690.8044851,93967.9921875,94067.4140625,94678.953125,94254.2734375,94194.6328125,94276.625,94463.390625,94577.390625,0.48583984375,0.808837890625,0.33447265625,-1.9531248807907104,-0.1525878757238388,0.6713866591453552,80.0,1303.0,1.0
5690.8069812,94357.71875,94457.671875,95069.21875,94644.265625,94584.71875,94666.2578125,94853.296875,94967.7421875,0.48583984375,0.809814453125,0.333740234375,-1.9226073026657104,-0.1525878757238388,0.6713866591453552,80.0,1304.0,1.0
5690.809467,93047.453125,93146.6953125,93757.9765625,93333.734375,93274.1015625,93354.8359375,93542.4140625,93656.40625,0.487548828125,0.808837890625,0.3369140625,-2.014159917831421,-0.1525878757238388,0.7324218153953552,80.0,1305.0,1.0
5690.8237986,92587.90625,92686.7890625,93298.0625,92873.828125,92814.375,92895.1953125,93082.953125,93196.765625,0.485595703125,0.8095703125,0.334716796875,-2.014159917831421,-0.0915527269244194,0.7324218153953552,80.0,1306.0,1.0
5690.8238065,93934.375,94033.5234375,94645.15625,94220.4765625,94161.2890625,94242.5625,94429.953125,94544.21875,0.48486328125,0.81005859375,0.331787109375,-2.044677495956421,-0.0610351525247097,0.6103515028953552,80.0,1307.0,1.0
5690.825718,94649.625,94749.140625,95360.953125,94936.265625,94876.6328125,94958.3515625,95145.4765625,95259.7421875,0.484619140625,0.80859375,0.333251953125,-2.044677495956421,-0.2136230319738388,0.6713866591453552,80.0,1308.0,1.0
5690.828229,93497.9765625,93596.7734375,94208.5859375,93783.8125,93724.8046875,93805.71875,93993.0234375,94107.015625,0.486083984375,0.810302734375,0.333984375,-2.014159917831421,-0.1525878757238388,0.7019042372703552,80.0,1309.0,1.0
5690.8307085,92713.0703125,92811.8671875,93423.4140625,92998.4609375,92939.5390625,93020.1875,93207.671875,93321.6640625,0.48486328125,0.809814453125,0.332763671875,-1.9836424589157104,-0.3356933295726776,0.6713866591453552,80.0,1310.0,1.0
5690.8400478,93875.8984375,93975.140625,94587.3125,94162.1796875,94102.90625,94184.0859375,94371.390625,94485.390625,0.486328125,0.8095703125,0.3330078125,-2.044677495956421,-0.3051757514476776,0.7019042372703552,80.0,1311.0,1.0
5690.840055,94878.328125,94977.5703125,95590.0078125,95164.8828125,95105.25,95186.9609375,95374.5390625,95488.53125,0.486572265625,0.809814453125,0.333740234375,-1.9836424589157104,-0.2746581733226776,0.6713866591453552,80.0,1312.0,1.0
5690.8419651,93962.4453125,94061.6015625,94673.6796875,94248.8203125,94189.1796875,94270.546875,94458.03125,94572.109375,0.487548828125,0.80859375,0.335205078125,-2.014159917831421,-0.3356933295726776,0.8544921278953552,80.0,1313.0,1.0
5690.8482332,92910.484375,93008.921875,93620.9140625,93196.2265625,93136.859375,93217.953125,93405.4375,93519.34375,0.487548828125,0.8095703125,0.334716796875,-2.014159917831421,-0.2746581733226776,0.9155272841453552,80.0,1314.0,1.0
5690.8512984,93806.1640625,93904.8671875,94516.9453125,94092.3515625,94032.8125,94113.9921875,94301.4765625,94415.296875,0.48583984375,0.810546875,0.335693359375,-2.105712652206421,-0.3051757514476776,0.7934569716453552,80.0,1315.0,1.0
