Time,FZ,C3,CZ,C4,PZ,PO7,OZ,PO8,AccX,AccY,AccZ,Gyro1,Gyro2,Gyro3,Battery,Counter,Validation
35185.8013984,179361.3125,176188.171875,296772.34375,237811.21875,158701.234375,167079.203125,168321.875,177502.8125,0.02294921875,0.987060546875,-0.266845703125,-2.349853277206421,-1.3427733182907104,-0.1831054538488388,66.66667175292969,41757.0,1.0
35185.8070044,178157.0,175654.671875,294258.84375,237613.71875,158685.40625,167099.234375,168338.140625,177524.171875,0.02294921875,0.986083984375,-0.269775390625,-2.441406011581421,-1.2817381620407104,-0.1831054538488388,66.66667175292969,41758.0,1.0
35185.8070106,179572.21875,176416.34375,295835.28125,238109.390625,159013.265625,167122.578125,168401.0,177526.140625,0.02099609375,0.98486328125,-0.270751953125,-2.471923589706421,-1.2207030057907104,-0.1525878757238388,66.66667175292969,41759.0,1.0
35185.8114206,180933.0,177034.671875,298519.28125,238351.140625,159062.984375,167102.28125,168390.984375,177506.03125,0.02001953125,0.98388671875,-0.270263671875,-2.410888433456421,-1.0681151151657104,-0.0915527269244194,66.66667175292969,41760.0,1.0
35185.8166912,179702.3125,176353.75,297296.8125,237881.3125,158741.03125,167077.421875,168326.609375,177499.953125,0.0205078125,0.98388671875,-0.27001953125,-2.319335699081421,-1.0375975370407104,-0.0610351525247097,66.66667175292969,41761.0,1.0
35185.8166974,178169.34375,175645.734375,294435.875,237565.890625,158642.859375,167091.375,168323.9375,177514.515625,0.021484375,0.98388671875,-0.270751953125,-2.258300542831421,-0.9460448622703552,0.03051757626235485,66.66667175292969,41762.0,1.0
35185.8166999,179208.34375,176233.765625,295294.375,237993.25,158949.4375,167114.703125,168382.5,177517.109375,0.02197265625,0.983642578125,-0.27001953125,-2.105712652206421,-0.8544921278953552,0.03051757626235485,66.66667175292969,41763.0,1.0
35185.8189278,180867.46875,177023.234375,298256.40625,238363.3125,159085.59375,167107.109375,168394.03125,177504.234375,0.020751953125,0.9833984375,-0.26904296875,-2.075195074081421,-0.8239745497703552,0.1831054538488388,66.66667175292969,41764.0,1.0
35185.8270133,180045.359375,176534.171875,297778.4375,237991.90625,158799.671875,167079.828125,168338.328125,177503.25,0.019287109375,0.984375,-0.271484375,-1.9836424589157104,-0.8544921278953552,0.2746581733226776,66.66667175292969,41765.0,1.0
35185.8270201,178274.65625,175680.515625,294753.90625,237572.5,158619.703125,167075.453125,168313.5625,177512.5625,0.0185546875,0.98583984375,-0.274169921875,-1.8005369901657104,-0.6713866591453552,0.2746581733226776,66.66667175292969,41766.0,1.0
35185.8314201,178865.28125,176051.640625,294835.25,237893.65625,158883.359375,167098.515625,168363.453125,177512.5625,0.0166015625,0.988525390625,-0.26904296875,-1.7395018339157104,-0.6103515028953552,0.2136230319738388,66.66667175292969,41767.0,1.0
35185.8339211,180718.0625,176957.96875,297874.28125,238359.734375,159097.75,167104.6875,168397.421875,177506.921875,0.020263671875,0.9892578125,-0.269775390625,-1.7700194120407104,-0.6408690810203552,0.1831054538488388,66.66667175292969,41768.0,1.0
35185.8364072,180352.125,176691.796875,298161.03125,238101.609375,158858.59375,167082.96875,168349.859375,177499.5,0.019775390625,0.9873046875,-0.269775390625,-1.8615721464157104,-0.5493163466453552,0.2746581733226776,66.66667175292969,41769.0,1.0
35185.8457503,178469.65625,175766.171875,295171.875,237615.0625,158616.5625,167080.28125,168310.796875,177503.796875,0.019287109375,0.9853515625,-0.26953125,-1.9531248807907104,-0.3967284858226776,0.2441406100988388,66.66667175292969,41770.0,1.0
35185.8457567,178578.640625,175904.125,294476.5625,237821.59375,158824.078125,167106.484375,168358.53125,177514.96875,0.01904296875,0.983642578125,-0.26806640625,-1.8615721464157104,-0.3967284858226776,0.3356933295726776,66.66667175292969,41771.0,1.0
35185.8476669,180492.671875,176859.34375,297399.1875,238343.640625,159094.453125,167113.625,168402.875,177511.84375,0.0205078125,0.981201171875,-0.268798828125,-1.8615721464157104,-0.3051757514476776,0.2746581733226776,66.66667175292969,41772.0,1.0
35185.8509898,180596.734375,176821.171875,298421.71875,238193.078125,158910.09375,167079.296875,168349.140625,177492.4375,0.023681640625,0.97998046875,-0.26904296875,-1.8920897245407104,-0.1831054538488388,0.2746581733226776,66.66667175292969,41773.0,1.0
35185.850997,178725.546875,175884.015625,295665.125,237655.203125,158629.53125,167077.234375,168309.0,177501.296875,0.02294921875,0.978759765625,-0.2685546875,-1.7089842557907104,-0.1831054538488388,0.3051757514476776,66.66667175292969,41774.0,1.0
35185.8526463,178352.171875,175782.171875,294243.21875,237707.78125,158769.015625,167103.703125,168349.140625,177514.4375,0.023193359375,0.980224609375,-0.2666015625,-1.7395018339157104,-0.0915527269244194,0.4577636420726776,66.66667175292969,41775.0,1.0
35185.8557469,180204.515625,176724.96875,296851.21875,238238.765625,159074.6875,167115.5,168397.421875,177506.46875,0.02197265625,0.98291015625,-0.27001953125,-1.6784666776657104,-0.0915527269244194,0.5187987685203552,66.66667175292969,41776.0,1.0
35185.855753,180790.21875,176935.796875,298566.9375,238230.171875,158975.265625,167095.921875,168369.078125,177493.78125,0.02001953125,0.9853515625,-0.271240234375,-1.5869139432907104,0.03051757626235485,0.5493163466453552,66.66667175292969,41777.0,1.0
35185.867705,179029.34375,176020.71875,296197.5625,237678.625,158652.421875,167072.953125,168310.796875,177492.96875,0.020751953125,0.98583984375,-0.267578125,-1.7089842557907104,0.1831054538488388,0.6408690810203552,66.66667175292969,41778.0,1.0
35185.87015,178192.9375,175676.9375,294138.34375,237607.375,158709.109375,167092.890625,168339.75,177511.390625,0.020751953125,0.984130859375,-0.27197265625,-1.8005369901657104,0.1831054538488388,0.7629393935203552,66.66667175292969,41779.0,1.0
35185.8726531,179877.28125,176560.109375,296279.8125,238161.96875,159046.265625,167118.546875,168403.0625,177515.59375,0.020263671875,0.983642578125,-0.273681640625,-1.7700194120407104,0.3051757514476776,0.8850097060203552,66.66667175292969,41780.0,1.0
35185.8757449,180897.765625,176993.734375,298568.90625,238302.859375,159022.390625,167094.40625,168378.46875,177496.375,0.02001953125,0.985107421875,-0.2724609375,-1.7089842557907104,0.3662109076976776,1.0375975370407104,66.66667175292969,41781.0,1.0
35185.8757504,179372.671875,176181.015625,296757.78125,237793.875,158697.125,167073.390625,168323.671875,177499.6875,0.02099609375,0.98486328125,-0.269775390625,-1.6784666776657104,0.3967284858226776,1.1596678495407104,66.66667175292969,41782.0,1.0
35185.8778206,178135.28125,175631.4375,294210.75,237594.5,158674.140625,167092.4375,168338.859375,177517.46875,0.022216796875,0.9853515625,-0.269287109375,-1.7700194120407104,0.4272460639476776,1.3427733182907104,66.66667175292969,41783.0,1.0
35185.8826592,179521.359375,176381.5625,295723.6875,238092.40625,159000.296875,167112.828125,168395.71875,177517.46875,0.018310546875,0.986083984375,-0.270263671875,-1.7700194120407104,0.3662109076976776,1.3732908964157104,66.66667175292969,41784.0,1.0
35185.8944749,180916.640625,177016.796875,298439.53125,238357.21875,159058.6875,167093.0625,168386.34375,177498.25,0.0146484375,0.9873046875,-0.2724609375,-1.8005369901657104,0.3967284858226776,1.3122557401657104,66.66667175292969,41785.0,1.0
35185.8944802,179729.3125,176356.96875,297295.75,237903.84375,158742.984375,167067.671875,168323.03125,177493.609375,0.014892578125,0.990234375,-0.272705078125,-1.6784666776657104,0.3356933295726776,1.3122557401657104,66.66667175292969,41786.0,1.0
35185.8964088,178165.234375,175626.96875,294411.03125,237575.09375,158633.828125,167074.46875,168316.328125,177508.078125,0.012939453125,0.993896484375,-0.274658203125,-1.7700194120407104,0.2746581733226776,1.3122557401657104,66.66667175292969,41787.0,1.0
35185.8989304,179165.421875,176195.234375,295198.875,237998.4375,158938.4375,167097.890625,168374.359375,177511.484375,0.01171875,0.998046875,-0.27490234375,-1.7700194120407104,0.1831054538488388,1.1901854276657104,66.66667175292969,41788.0,1.0
35185.9039316,180841.625,176988.984375,298167.46875,238373.671875,159075.765625,167083.671875,168378.734375,177489.671875,0.012939453125,0.9990234375,-0.275634765625,-1.9531248807907104,0.0915527269244194,1.1596678495407104,66.66667175292969,41789.0,1.0
35185.9064051,180061.546875,176521.21875,297763.25,238010.953125,158792.703125,167057.921875,168323.484375,177486.453125,0.012939453125,0.999267578125,-0.2744140625,-2.136230230331421,0.0610351525247097,1.0681151151657104,66.66667175292969,41790.0,1.0
35185.9089452,178279.578125,175668.8125,294741.65625,237585.109375,158615.140625,167065.53125,168311.234375,177505.671875,0.014892578125,1.001220703125,-0.271728515625,-2.288818120956421,-0.0610351525247097,0.9765624403953552,66.66667175292969,41791.0,1.0
35185.9144949,178827.640625,176024.734375,294753.8125,237896.59375,158884.609375,167101.46875,168376.421875,177517.828125,0.01611328125,1.00390625,-0.272705078125,-2.502441167831421,-0.1831054538488388,1.0070799589157104,66.66667175292969,41792.0,1.0
35185.9145004,180685.609375,176934.71875,297791.9375,238353.109375,159097.578125,167100.9375,168397.421875,177501.734375,0.017822265625,1.00439453125,-0.27392578125,-2.685546636581421,-0.2441406100988388,1.0070799589157104,66.66667175292969,41793.0,1.0
35185.9164124,180360.96875,176687.328125,298152.0,238089.0,158860.828125,167074.203125,168346.90625,177496.640625,0.020263671875,1.00390625,-0.27294921875,-2.899169683456421,-0.3662109076976776,1.0375975370407104,66.66667175292969,41794.0,1.0
35185.9189249,178476.625,175761.515625,295185.09375,237588.859375,158620.140625,167075.8125,168320.796875,177512.375,0.0234375,1.003662109375,-0.27099609375,-2.990722417831421,-0.1525878757238388,1.0986326932907104,66.66667175292969,41795.0,1.0
35185.9370072,178541.71875,175878.015625,294422.1875,237774.375,158824.625,167102.984375,168367.109375,177519.625,0.022705078125,1.003173828125,-0.2734375,-3.265380620956421,-0.0915527269244194,1.0681151151657104,66.66667175292969,41796.0,1.0
35185.9370137,180455.828125,176831.453125,297321.5625,238294.8125,159094.453125,167100.390625,168398.40625,177505.3125,0.025146484375,1.002197265625,-0.2734375,-3.540038824081421,-0.0915527269244194,1.2207030057907104,66.66667175292969,41797.0,1.0
35185.942,180610.59375,176816.171875,298422.90625,238165.453125,158919.484375,167070.0,168351.828125,177492.34375,0.026611328125,1.00048828125,-0.270263671875,-3.631591558456421,-0.0610351525247097,1.4038084745407104,66.66667175292969,41798.0,1.0
35185.9420061,178736.09375,175867.015625,295694.28125,237627.3125,158624.34375,167059.71875,168305.328125,177493.78125,0.02685546875,0.995361328125,-0.26904296875,-3.753661870956421,0.0610351525247097,1.6174315214157104,66.66667175292969,41799.0,1.0
35185.9469838,178316.328125,175744.4375,294210.46875,237680.421875,158757.390625,167091.71875,168350.21875,177510.765625,0.0263671875,0.99365234375,-0.2685546875,-3.997802495956421,0.1525878757238388,1.7700194120407104,66.66667175292969,41800.0,1.0
35185.94699,180158.90625,176684.109375,296784.15625,238223.734375,159066.109375,167103.53125,168399.03125,177502.625,0.02587890625,0.992919921875,-0.271240234375,-4.089354991912842,0.0915527269244194,1.8005369901657104,66.66667175292969,41801.0,1.0
35185.9513971,180796.828125,176922.65625,298570.78125,238241.890625,158977.0625,167087.703125,168373.828125,177494.671875,0.025390625,0.9912109375,-0.271240234375,-4.150390148162842,0.1831054538488388,1.9836424589157104,66.66667175292969,41802.0,1.0
35185.9539459,179062.25,176024.828125,296261.21875,237703.75,158659.75,167070.265625,168318.203125,177499.59375,0.0244140625,0.98876953125,-0.267333984375,-4.211425304412842,0.1831054538488388,1.9836424589157104,66.66667175292969,41803.0,1.0
35185.969483,178182.484375,175661.828125,294148.25,237618.8125,158711.078125,167093.25,168344.859375,177519.4375,0.022705078125,0.987060546875,-0.2646484375,-4.180907726287842,0.2136230319738388,2.166747808456421,66.66667175292969,41804.0,1.0
35185.9694892,179833.375,176524.515625,296223.3125,238154.625,159040.625,167109.515625,168402.796875,177517.03125,0.022216796875,0.98681640625,-0.267578125,-4.211425304412842,0.2136230319738388,2.136230230331421,66.66667175292969,41805.0,1.0
35185.9739257,180895.8125,176982.640625,298562.46875,238302.953125,159026.765625,167087.875,168384.28125,177502.453125,0.023681640625,0.98486328125,-0.264892578125,-4.180907726287842,0.1831054538488388,2.136230230331421,66.66667175292969,41806.0,1.0
35185.9764031,179403.515625,176189.0625,296819.5625,237794.3125,158699.71875,167066.515625,168324.640625,177501.296875,0.02490234375,0.98486328125,-0.267333984375,-4.150390148162842,0.2746581733226776,2.166747808456421,66.66667175292969,41807.0,1.0
35185.9789342,178125.171875,175617.9375,294226.21875,237571.078125,158661.265625,167080.375,168332.6875,177516.125,0.027099609375,0.984130859375,-0.265380859375,-4.241942882537842,0.2441406100988388,2.136230230331421,66.66667175292969,41808.0,1.0
35185.9889273,179472.09375,176350.09375,295667.625,238058.0625,158984.65625,167098.78125,168386.96875,177515.59375,0.026611328125,0.982666015625,-0.26611328125,-4.180907726287842,0.3662109076976776,2.166747808456421,66.66667175292969,41809.0,1.0
35185.9939318,180905.46875,177011.875,298426.5625,238338.359375,159057.34375,167086.265625,168385.4375,177502.625,0.025390625,0.980224609375,-0.26611328125,-4.333495616912842,0.3356933295726776,2.227782964706421,66.66667175292969,41810.0,1.0
35185.9964032,179753.09375,176368.5,297350.8125,237892.578125,158745.9375,167061.5,168328.578125,177503.34375,0.0263671875,0.981201171875,-0.26171875,-4.241942882537842,0.4577636420726776,2.166747808456421,66.66667175292969,41811.0,1.0
35186.0014071,178165.671875,175625.890625,294446.25,237556.046875,158633.46875,167070.625,168325.09375,177521.9375,0.02783203125,0.97998046875,-0.262451171875,-4.211425304412842,0.5798339247703552,2.075195074081421,66.66667175292969,41812.0,1.0
35186.0069908,179125.09375,176175.203125,295159.1875,237964.109375,158934.40625,167095.84375,168382.671875,177522.5625,0.0283203125,0.97998046875,-0.26416015625,-4.089354991912842,0.5187987685203552,2.166747808456421,66.66667175292969,41813.0,1.0
35186.0069954,180832.6875,176989.703125,298152.09375,238348.28125,159085.6875,167092.625,168396.265625,177508.625,0.029541015625,0.979736328125,-0.263916015625,-4.058837413787842,0.5187987685203552,2.044677495956421,66.66667175292969,41814.0,1.0
35186.0114061,180092.65625,176540.171875,297817.875,237983.421875,158804.234375,167067.5,168338.859375,177502.8125,0.029541015625,0.979736328125,-0.263427734375,-4.089354991912842,0.6103515028953552,2.105712652206421,66.66667175292969,41815.0,1.0
35186.0139285,178298.359375,175680.703125,294790.5625,237549.515625,158621.046875,167078.3125,168323.671875,177519.078125,0.03076171875,0.978759765625,-0.262451171875,-4.058837413787842,0.6103515028953552,1.9836424589157104,66.66667175292969,41816.0,1.0
35186.0251689,178801.8125,176012.03125,294726.375,237847.609375,158876.828125,167105.859375,168374.453125,177520.875,0.02880859375,0.978759765625,-0.26220703125,-3.875732183456421,0.7019042372703552,1.8920897245407104,66.66667175292969,41817.0,1.0
35186.0290926,180673.09375,176929.171875,297764.3125,238312.875,159094.0,167107.109375,168397.328125,177498.25,0.028076171875,0.981201171875,-0.264892578125,-3.875732183456421,0.7934569716453552,1.8615721464157104,66.66667175292969,41818.0,1.0
35186.0314455,180396.828125,176706.375,298200.09375,238066.65625,158866.46875,167081.625,168352.0,177493.15625,0.029541015625,0.978759765625,-0.26416015625,-3.814697027206421,0.7629393935203552,1.8920897245407104,66.66667175292969,41819.0,1.0
35186.0369894,178507.203125,175773.140625,295239.8125,237566.875,158620.40625,167076.078125,168319.8125,177507.453125,0.02880859375,0.978271484375,-0.261962890625,-3.814697027206421,0.7934569716453552,1.8310545682907104,66.66667175292969,41820.0,1.0
35186.0369959,178528.3125,175867.203125,294405.3125,237746.21875,158819.171875,167103.890625,168364.515625,177516.21875,0.02783203125,0.978759765625,-0.2646484375,-3.692626714706421,0.8544921278953552,1.9226073026657104,66.66667175292969,41821.0,1.0
35186.0439488,180448.40625,176831.09375,297292.4375,238278.09375,159095.875,167112.375,168405.734375,177504.0625,0.02685546875,0.980224609375,-0.263916015625,-3.723144292831421,0.9155272841453552,1.8615721464157104,66.66667175292969,41822.0,1.0
35186.0464062,180661.46875,176855.765625,298475.1875,238171.34375,158935.578125,167091.546875,168367.46875,177494.671875,0.025390625,0.982177734375,-0.262451171875,-3.631591558456421,0.8239745497703552,1.7700194120407104,66.66667175292969,41823.0,1.0
35186.0489287,178800.90625,175915.21875,295778.25,237640.984375,158645.8125,167083.59375,168324.828125,177507.90625,0.02685546875,0.982177734375,-0.2646484375,-3.570556402206421,0.8544921278953552,1.7395018339157104,66.66667175292969,41824.0,1.0
35186.0601479,178330.265625,175760.984375,294221.03125,237680.421875,158767.125,167103.890625,168358.265625,177519.265625,0.02880859375,0.981201171875,-0.265625,-3.479003667831421,0.9155272841453552,1.6479490995407104,66.66667175292969,41825.0,1.0
35186.0657445,180156.953125,176695.640625,296753.9375,238227.40625,159075.859375,167109.703125,168403.59375,177507.109375,0.02978515625,0.98193359375,-0.266357421875,-3.448486089706421,1.0070799589157104,1.6174315214157104,66.66667175292969,41826.0,1.0
35186.0657508,180833.75,176954.484375,298596.4375,238257.453125,158993.859375,167092.171875,168380.96875,177500.21875,0.03076171875,0.98291015625,-0.265625,-3.356933355331421,1.1291502714157104,1.6479490995407104,66.66667175292969,41827.0,1.0
35186.0676903,179116.25,176064.96875,296332.28125,237723.953125,158680.9375,167080.453125,168331.265625,177508.796875,0.03125,0.982177734375,-0.26611328125,-3.265380620956421,1.1596678495407104,1.6784666776657104,66.66667175292969,41828.0,1.0
35186.0701611,178195.171875,175681.5,294168.46875,237623.28125,158722.703125,167098.703125,168348.078125,177517.65625,0.029052734375,0.982177734375,-0.268310546875,-3.143310308456421,1.2207030057907104,1.5258787870407104,66.66667175292969,41829.0,1.0
35186.0976548,179823.015625,176536.859375,296194.4375,238157.3125,159052.421875,167118.28125,168408.25,177516.578125,0.028076171875,0.98291015625,-0.26708984375,-3.204345464706421,1.1596678495407104,1.5869139432907104,66.66667175292969,41830.0,1.0
35186.1070059,180926.03125,177015.359375,298585.53125,238316.90625,159046.4375,167098.78125,168394.390625,177504.78125,0.027587890625,0.984130859375,-0.265625,-3.082275152206421,0.9460448622703552,1.6479490995407104,66.66667175292969,41831.0,1.0
35186.1070124,179472.09375,176241.375,296905.84375,237817.921875,158729.125,167088.859375,168345.65625,177515.78125,0.027587890625,0.984130859375,-0.265380859375,-3.021239995956421,1.1291502714157104,1.6784666776657104,66.66667175292969,41832.0,1.0
35186.1089255,178160.40625,175649.578125,294267.71875,237577.5,158683.359375,167101.46875,168348.515625,177524.625,0.0283203125,0.98583984375,-0.266357421875,-3.021239995956421,1.2207030057907104,1.5258787870407104,66.66667175292969,41833.0,1.0
35186.1114059,179475.84375,176366.1875,295642.875,238052.890625,159003.609375,167121.140625,168404.125,177520.25,0.02880859375,0.986328125,-0.26708984375,-3.021239995956421,1.1291502714157104,1.5869139432907104,66.66667175292969,41834.0,1.0
35186.1139308,180934.078125,177041.03125,298427.375,238336.21875,159083.984375,167110.5,168409.3125,177511.125,0.028076171875,0.98583984375,-0.267333984375,-2.960204839706421,1.0986326932907104,1.4648436307907104,66.66667175292969,41835.0,1.0
35186.1170033,179815.046875,176416.34375,297420.0,237893.65625,158776.421875,167089.9375,168353.265625,177513.625,0.029052734375,0.988037109375,-0.264892578125,-2.929687261581421,1.0681151151657104,1.4038084745407104,66.66667175292969,41836.0,1.0
35186.1170115,178200.453125,175660.40625,294491.65625,237539.328125,158650.359375,167096.828125,168339.84375,177520.515625,0.029296875,0.989990234375,-0.265869140625,-2.777099370956421,1.0986326932907104,1.4343260526657104,66.66667175292969,41837.0,1.0
35186.1214081,179115.890625,176187.453125,295127.625,237933.796875,158942.015625,167116.3125,168394.109375,177519.265625,0.030517578125,0.990234375,-0.26513671875,-2.838134527206421,1.0375975370407104,1.3732908964157104,66.66667175292969,41838.0,1.0
35186.1244831,180848.421875,177018.5,298137.78125,238334.15625,159103.484375,167114.796875,168413.15625,177508.078125,0.02685546875,0.9912109375,-0.26708984375,-2.777099370956421,1.1291502714157104,1.2512205839157104,66.66667175292969,41839.0,1.0
35186.124489,180153.640625,176588.796875,297879.9375,237987.96875,158825.78125,167088.78125,168355.21875,177500.84375,0.027099609375,0.99365234375,-0.26611328125,-2.624511480331421,1.0986326932907104,1.2512205839157104,66.66667175292969,41840.0,1.0
35186.1339292,178339.84375,175712.34375,294846.875,237550.0625,158632.390625,167094.40625,168337.25,177516.046875,0.027587890625,0.993408203125,-0.262451171875,-2.685546636581421,0.9460448622703552,1.3122557401657104,66.66667175292969,41841.0,1.0
35186.1451686,178795.09375,176018.296875,294705.0,237846.796875,158885.6875,167120.609375,168392.15625,177525.609375,0.02685546875,0.99560546875,-0.26171875,-2.807616949081421,0.8850097060203552,1.2512205839157104,66.66667175292969,41842.0,1.0
35186.1476512,180678.71875,176940.078125,297738.46875,238330.671875,159111.609375,167116.9375,168417.265625,177513.0,0.02685546875,0.99365234375,-0.2626953125,-2.899169683456421,0.9155272841453552,1.1596678495407104,66.66667175292969,41843.0,1.0
35186.1526474,180441.703125,176729.171875,298239.53125,238095.890625,158879.6875,167082.15625,168359.15625,177497.265625,0.0244140625,0.991455078125,-0.2626953125,-2.899169683456421,0.8850097060203552,1.1291502714157104,66.66667175292969,41844.0,1.0
35186.1551384,178539.390625,175782.0,295289.4375,237590.46875,158622.015625,167072.5,168321.078125,177508.53125,0.027099609375,0.985595703125,-0.260498046875,-3.051757574081421,0.8544921278953552,1.0986326932907104,66.66667175292969,41845.0,1.0
35186.1607482,178509.171875,175851.375,294380.28125,237758.640625,158814.0625,167098.34375,168368.1875,177524.171875,0.029052734375,0.9814453125,-0.2646484375,-2.929687261581421,0.8239745497703552,1.1596678495407104,66.66667175292969,41846.0,1.0
35186.1607544,180420.515625,176809.109375,297233.5,238285.25,159094.984375,167105.765625,168406.90625,177512.109375,0.0322265625,0.9775390625,-0.2646484375,-2.899169683456421,0.7324218153953552,1.2512205839157104,66.66667175292969,41847.0,1.0
35186.1626494,180678.453125,176853.09375,298477.96875,238184.3125,158943.265625,167085.828125,168367.5625,177505.3125,0.03369140625,0.9794921875,-0.2626953125,-2.807616949081421,0.6103515028953552,1.3732908964157104,66.66667175292969,41848.0,1.0
35186.1707301,178820.765625,175911.90625,295813.375,237635.796875,158648.75,167077.953125,168325.265625,177516.484375,0.03369140625,0.98193359375,-0.263671875,-2.685546636581421,0.7019042372703552,1.4343260526657104,66.66667175292969,41849.0,1.0
35186.170736,178308.8125,175739.703125,294194.46875,237651.453125,158769.984375,167106.65625,168367.46875,177536.875,0.03515625,0.982421875,-0.26513671875,-2.624511480331421,0.7324218153953552,1.6479490995407104,66.66667175292969,41850.0,1.0
35186.1726456,180130.390625,176677.765625,296692.25,238192.625,159091.59375,167121.59375,168418.34375,177530.796875,0.03515625,0.981201171875,-0.26611328125,-2.532958745956421,0.7324218153953552,1.7089842557907104,66.66667175292969,41851.0,1.0
35186.177669,180846.71875,176951.265625,298585.15625,238220.96875,159009.78125,167094.765625,168385.625,177514.609375,0.033935546875,0.97900390625,-0.264404296875,-2.410888433456421,0.7324218153953552,1.7700194120407104,66.66667175292969,41852.0,1.0
35186.1826574,179145.9375,176065.953125,296360.625,237684.96875,158687.921875,167074.921875,168329.296875,177519.703125,0.029296875,0.981689453125,-0.263916015625,-2.319335699081421,0.7324218153953552,1.7700194120407104,66.66667175292969,41853.0,1.0
35186.1851449,178187.21875,175664.421875,294139.84375,237580.1875,158723.234375,167098.34375,168350.046875,177531.15625,0.02783203125,0.984130859375,-0.262939453125,-2.227782964706421,0.7629393935203552,1.8310545682907104,66.66667175292969,41854.0,1.0
35186.1939267,179797.34375,176518.265625,296113.15625,238120.46875,159055.921875,167118.71875,168402.96875,177520.328125,0.02490234375,0.98583984375,-0.259521484375,-2.227782964706421,0.7019042372703552,1.6784666776657104,66.66667175292969,41855.0,1.0
35186.1963989,180937.296875,177018.765625,298548.78125,238294.546875,159057.171875,167097.265625,168386.25,177501.734375,0.026611328125,0.9873046875,-0.2646484375,-2.258300542831421,0.6408690810203552,1.6174315214157104,66.66667175292969,41856.0,1.0
35186.1989226,179506.421875,176254.6875,296925.59375,237804.0625,158740.484375,167085.5625,168337.515625,177510.671875,0.02587890625,0.984619140625,-0.26611328125,-2.227782964706421,0.4577636420726776,1.4343260526657104,66.66667175292969,41857.0,1.0
35186.209487,178165.859375,175652.4375,294258.125,237570.359375,158695.25,167107.546875,168351.015625,177532.84375,0.02734375,0.98291015625,-0.2685546875,-2.349853277206421,0.3967284858226776,1.3732908964157104,66.66667175292969,41858.0,1.0
35186.2094932,179446.421875,176350.890625,295568.65625,238049.3125,159018.0,167128.109375,168408.25,177528.828125,0.027099609375,0.98193359375,-0.265625,-2.105712652206421,0.3051757514476776,1.3427733182907104,66.66667175292969,41859.0,1.0
35186.2113909,180938.8125,177041.828125,298387.5,238351.59375,159103.484375,167115.59375,168406.640625,177513.453125,0.028564453125,0.98193359375,-0.265625,-2.136230230331421,0.2136230319738388,1.2207030057907104,66.66667175292969,41860.0,1.0
35186.213916,179862.625,176435.015625,297451.5625,237923.6875,158795.5625,167091.453125,168348.78125,177514.171875,0.03076171875,0.985595703125,-0.263916015625,-2.044677495956421,0.3051757514476776,1.1901854276657104,66.66667175292969,41861.0,1.0
35186.2169788,178219.765625,175657.71875,294498.8125,237564.453125,158663.859375,167099.765625,168340.65625,177527.484375,0.031494140625,0.987548828125,-0.266357421875,-1.9836424589157104,0.2136230319738388,0.9765624403953552,66.66667175292969,41862.0,1.0
35186.2169848,179096.046875,176168.5,295065.03125,237955.34375,158961.5,167131.6875,168404.484375,177535.4375,0.032958984375,0.989990234375,-0.2646484375,-1.9836424589157104,0.2441406100988388,1.0070799589157104,66.66667175292969,41863.0,1.0
35186.2189148,180844.671875,177007.3125,298083.5,238351.59375,159124.40625,167126.140625,168419.6875,177519.625,0.031982421875,0.99169921875,-0.263671875,-2.166747808456421,0.1525878757238388,1.0375975370407104,66.66667175292969,41864.0,1.0
35186.22139,180194.765625,176602.390625,297901.90625,238008.984375,158851.984375,167096.640625,168361.21875,177512.203125,0.031982421875,0.993408203125,-0.264404296875,-2.227782964706421,0.2746581733226776,1.0681151151657104,66.66667175292969,41865.0,1.0
35186.2239197,178364.96875,175715.390625,294863.4375,237553.015625,158646.875,167095.21875,168333.3125,177521.234375,0.03369140625,0.992431640625,-0.263671875,-2.288818120956421,0.2746581733226776,1.1291502714157104,66.66667175292969,41866.0,1.0
35186.2264032,178771.859375,175996.484375,294637.75,237831.6875,158889.96875,167120.96875,168386.421875,177527.84375,0.03271484375,0.99267578125,-0.2646484375,-2.410888433456421,0.3967284858226776,1.0986326932907104,66.66667175292969,41867.0,1.0
35186.2289225,180662.8125,176924.609375,297658.46875,238322.53125,159124.3125,167124.0,168419.328125,177517.921875,0.03369140625,0.992919921875,-0.263916015625,-2.532958745956421,0.3356933295726776,1.2512205839157104,66.66667175292969,41868.0,1.0
35186.2319711,180478.546875,176747.140625,298241.03125,238104.296875,158905.0,167092.171875,168364.25,177506.828125,0.030029296875,0.9921875,-0.2646484375,-2.532958745956421,0.3967284858226776,1.1596678495407104,66.66667175292969,41869.0,1.0
35186.2319778,178582.3125,175805.234375,295321.46875,237590.828125,158645.171875,167084.21875,168325.90625,177515.421875,0.031494140625,0.992431640625,-0.264404296875,-2.563476324081421,0.3662109076976776,1.1901854276657104,66.66667175292969,41870.0,1.0
35186.2376335,178497.828125,175844.125,294331.625,237735.21875,158823.71875,167107.734375,168369.796875,177524.625,0.02978515625,0.993896484375,-0.267333984375,-2.563476324081421,0.3662109076976776,1.3122557401657104,66.66667175292969,41871.0,1.0
35186.2440857,180407.28125,176804.71875,297163.0625,238258.96875,159103.75,167111.578125,168408.953125,177512.46875,0.03076171875,0.993408203125,-0.263671875,-2.655029058456421,0.3662109076976776,1.2512205839157104,66.66667175292969,41872.0,1.0
35186.2470033,180718.25,176884.5625,298495.59375,238176.625,158965.078125,167097.984375,168381.6875,177514.34375,0.031982421875,0.9931640625,-0.26220703125,-2.777099370956421,0.3051757514476776,1.2207030057907104,66.66667175292969,41873.0,1.0
35186.2470098,178872.078125,175949.90625,295875.15625,237636.421875,158665.296875,167087.34375,168330.453125,177516.3125,0.0322265625,0.99169921875,-0.26416015625,-2.777099370956421,0.2441406100988388,1.3427733182907104,66.66667175292969,41874.0,1.0
35186.2513944,178302.375,175743.1875,294180.875,237642.421875,158767.84375,167106.75,168360.046875,177524.53125,0.0322265625,0.9912109375,-0.263427734375,-2.838134527206421,0.2746581733226776,1.3122557401657104,66.66667175292969,41875.0,1.0
35186.2544928,180106.15625,176670.34375,296628.3125,238193.25,159089.078125,167121.046875,168416.296875,177522.65625,0.03076171875,0.99072265625,-0.261474609375,-2.929687261581421,0.3662109076976776,1.3732908964157104,66.66667175292969,41876.0,1.0
35186.2544986,180863.0,176966.90625,298580.15625,238241.53125,159012.375,167092.171875,168384.734375,177505.578125,0.03173828125,0.989013671875,-0.26171875,-3.051757574081421,0.2441406100988388,1.3732908964157104,66.66667175292969,41877.0,1.0
35186.2564007,179179.8125,176087.59375,296407.03125,237705.71875,158689.171875,167074.109375,168327.328125,177504.515625,0.032470703125,0.98974609375,-0.262939453125,-3.051757574081421,0.2441406100988388,1.3122557401657104,66.66667175292969,41878.0,1.0
35186.2589333,178182.296875,175666.65625,294135.46875,237580.546875,158717.78125,167098.609375,168348.609375,177520.0625,0.030029296875,0.987060546875,-0.260498046875,-2.990722417831421,0.3051757514476776,1.3122557401657104,66.66667175292969,41879.0,1.0
35186.2651467,179758.546875,176503.328125,296044.9375,238103.046875,159047.328125,167118.28125,168403.0625,177513.890625,0.032470703125,0.986572265625,-0.26123046875,-3.021239995956421,0.2441406100988388,1.2207030057907104,66.66667175292969,41880.0,1.0
35186.2677027,180937.296875,177026.0,298526.4375,238283.828125,159058.515625,167103.796875,168392.6875,177499.6875,0.031494140625,0.984130859375,-0.26318359375,-2.960204839706421,0.1525878757238388,1.2207030057907104,66.66667175292969,41881.0,1.0
35186.2707356,179532.4375,176269.265625,296960.5625,237783.6875,158734.59375,167080.015625,168332.609375,177498.609375,0.032470703125,0.985107421875,-0.261474609375,-2.929687261581421,0.2136230319738388,1.1901854276657104,66.66667175292969,41882.0,1.0
35186.2707414,178150.390625,175640.828125,294243.84375,237516.984375,158670.484375,167089.671875,168332.875,177509.421875,0.03515625,0.985107421875,-0.258544921875,-2.807616949081421,0.1220703050494194,1.2207030057907104,66.66667175292969,41883.0,1.0
35186.2726584,179396.265625,176322.28125,295485.96875,237985.65625,158990.015625,167116.578125,168396.4375,177511.578125,0.034423828125,0.986328125,-0.260986328125,-2.716064214706421,0.1220703050494194,1.0375975370407104,66.66667175292969,41884.0,1.0
35186.2819693,180922.265625,177034.765625,298339.03125,238297.40625,159086.578125,167108.265625,168399.75,177501.109375,0.031494140625,0.987060546875,-0.2607421875,-2.655029058456421,0.03051757626235485,1.0986326932907104,66.66667175292969,41885.0,1.0
35186.2819772,179875.5,176436.8125,297467.40625,237870.40625,158778.125,167080.28125,168339.125,177496.734375,0.03173828125,0.986328125,-0.26171875,-2.655029058456421,0.1220703050494194,1.0070799589157104,66.66667175292969,41886.0,1.0
35186.288944,178208.328125,175648.421875,294498.28125,237502.046875,158640.625,167086.359375,168329.125,177511.296875,0.03271484375,0.986083984375,-0.26318359375,-2.624511480331421,-0.03051757626235485,0.9765624403953552,66.66667175292969,41887.0,1.0
35186.2914062,179042.484375,176140.703125,294990.90625,237889.71875,158938.796875,167118.28125,168391.171875,177519.265625,0.032958984375,0.985595703125,-0.260498046875,-2.532958745956421,-0.03051757626235485,0.9155272841453552,66.66667175292969,41888.0,1.0
35186.293922,180814.359375,176993.453125,298027.625,238308.59375,159115.453125,167114.875,168411.90625,177509.34375,0.032470703125,0.98681640625,-0.259521484375,-2.441406011581421,0.0610351525247097,0.8239745497703552,66.66667175292969,41889.0,1.0
35186.2989176,180200.75,176601.859375,297918.90625,237981.890625,158846.171875,167084.75,168355.5,177505.765625,0.0322265625,0.98779296875,-0.26025390625,-2.349853277206421,-0.0610351525247097,0.8544921278953552,66.66667175292969,41890.0,1.0
35186.3019818,178360.671875,175709.390625,294883.625,237528.25,158638.03125,167083.859375,168329.203125,177518.28125,0.033447265625,0.986328125,-0.260498046875,-2.349853277206421,-0.0915527269244194,0.7934569716453552,66.66667175292969,41891.0,1.0
35186.3019868,178723.21875,175970.203125,294582.9375,237793.78125,158871.46875,167101.921875,168368.546875,177512.015625,0.0341796875,0.985595703125,-0.26025390625,-2.288818120956421,-0.0915527269244194,0.6713866591453552,66.66667175292969,41892.0,1.0
35186.3039276,180626.15625,176906.828125,297601.0625,238291.515625,159110.28125,167106.65625,168406.1875,177504.234375,0.0341796875,0.986572265625,-0.260009765625,-2.288818120956421,-0.0915527269244194,0.6408690810203552,66.66667175292969,41893.0,1.0
35186.3176912,180489.453125,176750.984375,298256.15625,238087.9375,158900.609375,167081.359375,168359.6875,177498.96875,0.03369140625,0.987548828125,-0.259521484375,-2.197265386581421,-0.2136230319738388,0.5798339247703552,66.66667175292969,41894.0,1.0
35186.3250869,178587.9375,175806.484375,295350.25,237571.515625,158634.359375,167072.0625,168314.71875,177505.5,0.03271484375,0.987060546875,-0.260009765625,-2.227782964706421,-0.2746581733226776,0.5798339247703552,66.66667175292969,41895.0,1.0
35186.3250926,178457.3125,175824.015625,294287.0,237705.53125,158809.515625,167097.359375,168357.015625,177513.0,0.03076171875,0.98583984375,-0.257080078125,-2.227782964706421,-0.2441406100988388,0.6408690810203552,66.66667175292969,41896.0,1.0
35186.3250951,180359.71875,176779.953125,297080.09375,238235.984375,159096.421875,167104.328125,168401.0,177503.078125,0.03076171875,0.984619140625,-0.258544921875,-2.166747808456421,-0.2746581733226776,0.6408690810203552,66.66667175292969,41897.0,1.0
35186.3319941,180704.46875,176864.09375,298456.5,238157.046875,158952.03125,167077.6875,168360.953125,177493.6875,0.030517578125,0.985107421875,-0.260498046875,-2.166747808456421,-0.2136230319738388,0.4882812201976776,66.66667175292969,41898.0,1.0
35186.3320004,178878.421875,175940.25,295875.0625,237622.390625,158661.265625,167076.53125,168321.34375,177512.5625,0.02783203125,0.98583984375,-0.26171875,-1.9836424589157104,-0.2441406100988388,0.4272460639476776,66.66667175292969,41899.0,1.0
35186.3487583,178272.609375,175720.921875,294122.5,237614.96875,158764.09375,167105.140625,168355.9375,177527.9375,0.02880859375,0.986328125,-0.261474609375,-1.9531248807907104,-0.3051757514476776,0.4577636420726776,66.66667175292969,41900.0,1.0
35186.3564023,180049.484375,176631.984375,296511.375,238149.359375,159078.09375,167112.734375,168403.59375,177519.890625,0.02880859375,0.986328125,-0.26123046875,-1.8005369901657104,-0.3662109076976776,0.3967284858226776,66.66667175292969,41901.0,1.0
35186.3589289,180856.90625,176959.75,298529.09375,238210.515625,159016.125,167092.265625,168378.375,177505.84375,0.02783203125,0.9853515625,-0.26416015625,-1.7700194120407104,-0.4577636420726776,0.3662109076976776,66.66667175292969,41902.0,1.0
35186.361406,179208.609375,176103.0625,296426.96875,237680.953125,158698.5625,167080.640625,168330.546875,177516.125,0.027587890625,0.986572265625,-0.2607421875,-1.7395018339157104,-0.4882812201976776,0.3967284858226776,66.66667175292969,41903.0,1.0
35186.364485,178159.421875,175650.203125,294097.90625,237536.296875,158710.453125,167097.265625,168347.0,177531.0625,0.026123046875,0.987548828125,-0.25927734375,-1.7700194120407104,-0.5493163466453552,0.2136230319738388,66.66667175292969,41904.0,1.0
35186.364491,179703.390625,176469.09375,295940.0625,238058.875,159039.546875,167117.390625,168404.125,177528.296875,0.02734375,0.9873046875,-0.26318359375,-1.7700194120407104,-0.6103515028953552,0.3662109076976776,66.66667175292969,41905.0,1.0
35186.3664042,180926.109375,177015.625,298470.8125,238265.671875,159061.546875,167101.5625,168392.59375,177514.703125,0.030029296875,0.98583984375,-0.262939453125,-1.6479490995407104,-0.5493163466453552,0.3967284858226776,66.66667175292969,41906.0,1.0
35186.3694772,179562.03125,176278.921875,296978.0,237782.34375,158740.9375,167081.890625,168335.375,177514.796875,0.031005859375,0.986572265625,-0.262451171875,-1.6784666776657104,-0.5493163466453552,0.3662109076976776,66.66667175292969,41907.0,1.0
35186.3694848,178144.9375,175630.0,294227.90625,237509.296875,158669.3125,167091.453125,168336.0,177525.25,0.030029296875,0.9873046875,-0.260498046875,-1.6784666776657104,-0.6103515028953552,0.3662109076976776,66.66667175292969,41908.0,1.0
35186.3714042,179349.328125,176294.46875,295388.59375,237975.28125,158990.375,167118.09375,168400.109375,177528.203125,0.029052734375,0.9873046875,-0.25927734375,-1.7089842557907104,-0.6408690810203552,0.3662109076976776,66.66667175292969,41909.0,1.0
35186.3751611,180897.765625,177014.65625,298255.0625,238298.578125,159091.046875,167105.859375,168400.546875,177506.75,0.03076171875,0.990478515625,-0.259521484375,-1.8310545682907104,-0.6408690810203552,0.5187987685203552,66.66667175292969,41910.0,1.0
35186.3794715,179903.296875,176444.5,297466.15625,237887.75,158788.765625,167079.203125,168336.453125,177499.5,0.031005859375,0.98974609375,-0.261962890625,-1.7395018339157104,-0.6408690810203552,0.5798339247703552,66.66667175292969,41911.0,1.0
35186.3794767,178223.515625,175650.75,294488.53125,237515.546875,158646.34375,167089.9375,168323.75,177511.578125,0.0302734375,0.98974609375,-0.25927734375,-1.7395018339157104,-0.5798339247703552,0.6713866591453552,66.66667175292969,41912.0,1.0
35186.398234,179009.671875,176115.21875,294892.75,237891.6875,158932.53125,167114.96875,168384.734375,177519.890625,0.031005859375,0.9892578125,-0.260009765625,-1.8310545682907104,-0.5187987685203552,0.6408690810203552,66.66667175292969,41913.0,1.0
35186.3982403,180797.71875,176977.90625,297927.125,238318.0625,159113.671875,167109.78125,168408.25,177510.234375,0.03173828125,0.989013671875,-0.263671875,-1.8005369901657104,-0.5493163466453552,0.6713866591453552,66.66667175292969,41914.0,1.0
35186.4009986,180235.453125,176611.0625,297896.8125,238000.9375,158850.90625,167079.296875,168349.6875,177501.46875,0.03076171875,0.98828125,-0.2626953125,-1.8920897245407104,-0.5493163466453552,0.7629393935203552,66.66667175292969,41915.0,1.0
35186.4010036,178383.5625,175707.78125,294864.3125,237531.375,158632.65625,167074.65625,168319.1875,177510.671875,0.02978515625,0.98828125,-0.26025390625,-1.8615721464157104,-0.5187987685203552,0.7934569716453552,66.66667175292969,41916.0,1.0
35186.4119822,178691.65625,175945.515625,294485.0625,237779.5625,158868.15625,167103.171875,168373.203125,177521.234375,0.03076171875,0.987548828125,-0.257568359375,-1.8615721464157104,-0.5187987685203552,0.7019042372703552,66.66667175292969,41917.0,1.0
35186.4119885,180591.546875,176886.703125,297485.0,238267.90625,159111.703125,167104.875,168407.4375,177510.671875,0.02978515625,0.98681640625,-0.26171875,-1.8005369901657104,-0.4577636420726776,0.7019042372703552,66.66667175292969,41918.0,1.0
35186.4144699,180505.09375,176757.421875,298222.1875,238070.046875,158908.296875,167080.90625,168362.46875,177502.90625,0.030517578125,0.988525390625,-0.262939453125,-1.8920897245407104,-0.6713866591453552,0.8239745497703552,66.66667175292969,41919.0,1.0
35186.4144744,178607.515625,175811.953125,295344.875,237545.140625,158640.53125,167074.921875,168321.15625,177510.953125,0.030029296875,0.988525390625,-0.262939453125,-1.8310545682907104,-0.6103515028953552,0.7934569716453552,66.66667175292969,41920.0,1.0
35186.4307317,178430.765625,175806.21875,294206.8125,237660.390625,158807.453125,167098.15625,168363.265625,177522.296875,0.03076171875,0.986328125,-0.262939453125,-1.7700194120407104,-0.5187987685203552,0.7324218153953552,66.66667175292969,41921.0,1.0
35186.4307379,180329.0625,176761.984375,296973.15625,238197.71875,159101.78125,167107.453125,168408.328125,177513.0,0.031494140625,0.987548828125,-0.2626953125,-1.8615721464157104,-0.5187987685203552,0.7934569716453552,66.66667175292969,41922.0,1.0
35186.43324,180723.78125,176872.484375,298431.3125,238142.65625,158968.5625,167084.578125,168373.546875,177505.671875,0.033935546875,0.9892578125,-0.264404296875,-1.8920897245407104,-0.4272460639476776,0.7934569716453552,66.66667175292969,41923.0,1.0
35186.4332453,178901.9375,175942.75,295885.25,237598.515625,158662.171875,167071.96875,168324.109375,177515.234375,0.032470703125,0.988525390625,-0.264892578125,-1.7700194120407104,-0.4272460639476776,0.8544921278953552,66.66667175292969,41924.0,1.0
35186.4351429,178253.734375,175703.3125,294071.8125,237585.828125,158757.921875,167100.671875,168358.4375,177533.75,0.033203125,0.988037109375,-0.265625,-2.014159917831421,-0.3967284858226776,0.8850097060203552,66.66667175292969,41925.0,1.0
35186.4426401,180023.015625,176621.96875,296428.21875,238140.234375,159085.515625,167122.484375,168415.125,177527.9375,0.03076171875,0.98974609375,-0.262939453125,-2.014159917831421,-0.2441406100988388,0.8239745497703552,66.66667175292969,41926.0,1.0
35186.4457366,180871.484375,176966.640625,298505.59375,238220.34375,159027.21875,167099.328125,168388.84375,177511.390625,0.0322265625,0.989013671875,-0.26416015625,-1.9531248807907104,-0.1525878757238388,0.9155272841453552,66.66667175292969,41927.0,1.0
35186.4457425,179235.703125,176104.9375,296452.0,237693.109375,158699.890625,167076.890625,168329.75,177512.109375,0.033447265625,0.98876953125,-0.265869140625,-1.9531248807907104,-0.1831054538488388,0.7934569716453552,66.66667175292969,41928.0,1.0
35186.4512577,178154.140625,175641.171875,294080.21875,237547.015625,158713.578125,167102.359375,168352.453125,177531.78125,0.0322265625,0.987548828125,-0.263671875,-2.014159917831421,-0.0610351525247097,0.9155272841453552,66.66667175292969,41929.0,1.0
35186.4589457,179669.234375,176448.609375,295863.09375,238068.265625,159044.65625,167122.03125,168410.921875,177530.53125,0.03076171875,0.99072265625,-0.26171875,-2.075195074081421,-0.0915527269244194,0.8850097060203552,66.66667175292969,41930.0,1.0
35186.4613915,180918.96875,177005.078125,298430.3125,238276.9375,159067.1875,167099.6875,168395.375,177508.890625,0.03125,0.991455078125,-0.262939453125,-2.075195074081421,-0.1220703050494194,0.7629393935203552,66.66667175292969,41931.0,1.0
35186.4639237,179578.21875,176274.890625,296996.6875,237790.46875,158740.390625,167072.953125,168329.03125,177500.046875,0.03173828125,0.98974609375,-0.263427734375,-2.136230230331421,-0.0610351525247097,0.7019042372703552,66.66667175292969,41932.0,1.0
35186.4732579,178133.75,175611.3125,294216.125,237505.0,158658.765625,167082.6875,168324.375,177508.625,0.031494140625,0.989013671875,-0.263427734375,-2.105712652206421,0.03051757626235485,0.7629393935203552,66.66667175292969,41933.0,1.0
35186.4732643,179303.375,176259.96875,295310.0,237961.328125,158976.078125,167106.828125,168386.96875,177515.0625,0.03369140625,0.989501953125,-0.26171875,-2.197265386581421,0.0610351525247097,0.7934569716453552,66.66667175292969,41934.0,1.0
35186.4776563,180878.28125,176992.65625,298203.5,238289.8125,159083.359375,167095.03125,168391.4375,177498.4375,0.0322265625,0.987060546875,-0.26220703125,-2.258300542831421,0.0610351525247097,0.7629393935203552,66.66667175292969,41935.0,1.0
35186.4801404,179923.140625,176440.125,297491.375,237881.40625,158783.3125,167071.15625,168333.953125,177495.65625,0.032470703125,0.98779296875,-0.263427734375,-2.288818120956421,0.1220703050494194,0.7324218153953552,66.66667175292969,41936.0,1.0
35186.4839228,178214.9375,175629.90625,294495.5,237487.828125,158628.375,167077.0625,168319.90625,177509.78125,0.031982421875,0.988037109375,-0.2607421875,-2.319335699081421,0.1525878757238388,0.6713866591453552,66.66667175292969,41937.0,1.0
35186.4932491,178950.84375,176071.859375,294820.15625,237843.9375,158911.703125,167101.734375,168378.203125,177515.59375,0.02880859375,0.985595703125,-0.260009765625,-2.319335699081421,0.1525878757238388,0.6103515028953552,66.66667175292969,41938.0,1.0
35186.4932553,180749.890625,176940.703125,297857.40625,238268.4375,159099.8125,167096.546875,168397.515625,177502.0,0.03076171875,0.986572265625,-0.26220703125,-2.380370855331421,0.1220703050494194,0.5493163466453552,66.66667175292969,41939.0,1.0
35186.4951488,180234.015625,176601.3125,297907.5625,237956.140625,158840.171875,167068.390625,168341.453125,177494.3125,0.0302734375,0.988525390625,-0.26220703125,-2.380370855331421,0.2441406100988388,0.5798339247703552,66.66667175292969,41940.0,1.0
35186.4989156,178372.734375,175696.875,294886.40625,237478.0,158619.515625,167070.0,168313.375,177506.03125,0.031005859375,0.9892578125,-0.26123046875,-2.380370855331421,0.1831054538488388,0.5798339247703552,66.66667175292969,41941.0,1.0
35186.5082334,178633.546875,175909.3125,294421.9375,237715.828125,158847.5,167096.203125,168363.453125,177513.984375,0.03125,0.9892578125,-0.263671875,-2.532958745956421,0.0610351525247097,0.5493163466453552,66.66667175292969,41942.0,1.0
35186.5082397,180542.5625,176854.078125,297403.65625,238221.328125,159100.0,167101.46875,168400.109375,177502.453125,0.0302734375,0.990234375,-0.26513671875,-2.502441167831421,0.1220703050494194,0.6103515028953552,66.66667175292969,41943.0,1.0
35186.5101458,180506.53125,176747.140625,298213.15625,238043.5,158900.890625,167076.078125,168354.515625,177493.78125,0.029541015625,0.989013671875,-0.263427734375,-2.471923589706421,0.1220703050494194,0.5187987685203552,66.66667175292969,41944.0,1.0
35186.5239261,178613.875,175801.484375,295356.0625,237521.8125,158624.609375,167065.53125,168308.015625,177500.21875,0.030517578125,0.986572265625,-0.262939453125,-2.532958745956421,0.0915527269244194,0.5187987685203552,66.66667175292969,41945.0,1.0
35186.5294793,178394.015625,175777.96875,294148.78125,237639.109375,158789.578125,167095.921875,168350.578125,177513.625,0.029541015625,0.987548828125,-0.26171875,-2.502441167831421,0.1220703050494194,0.5493163466453552,66.66667175292969,41946.0,1.0
35186.5294852,180289.984375,176740.796875,296888.3125,238188.96875,159097.125,167115.421875,168405.03125,177513.1875,0.02978515625,0.98779296875,-0.26220703125,-2.380370855331421,0.03051757626235485,0.3967284858226776,66.66667175292969,41947.0,1.0
35186.5339258,180731.46875,176876.78125,298407.875,238139.78125,158969.734375,167092.078125,168369.53125,177499.765625,0.030517578125,0.98828125,-0.263671875,-2.441406011581421,0.0,0.3967284858226776,66.66667175292969,41948.0,1.0
35186.5401514,178926.4375,175954.546875,295899.8125,237596.375,158660.5625,167077.0625,168321.78125,177507.015625,0.028564453125,0.988037109375,-0.263427734375,-2.532958745956421,0.03051757626235485,0.3967284858226776,66.66667175292969,41949.0,1.0
35186.5432375,178228.265625,175684.8125,294016.8125,237567.9375,158746.5625,167101.375,168354.0625,177523.546875,0.028076171875,0.986328125,-0.263916015625,-2.593993902206421,-0.03051757626235485,0.4272460639476776,66.66667175292969,41950.0,1.0
35186.5432454,179968.390625,176585.3125,296312.09375,238110.546875,159068.609375,167114.25,168404.3125,177513.71875,0.02978515625,0.9873046875,-0.264892578125,-2.502441167831421,-0.2136230319738388,0.4272460639476776,66.66667175292969,41951.0,1.0
35186.5451553,180862.28125,176952.6875,298444.09375,238202.28125,159019.171875,167093.0625,168379.0,177495.5625,0.0302734375,0.988525390625,-0.263427734375,-2.471923589706421,-0.1831054538488388,0.4882812201976776,66.66667175292969,41952.0,1.0
35186.5501426,179257.421875,176108.328125,296449.6875,237678.890625,158691.9375,167072.234375,168319.90625,177496.375,0.03076171875,0.989501953125,-0.26171875,-2.410888433456421,-0.2136230319738388,0.3967284858226776,66.66667175292969,41953.0,1.0
35186.5526633,178134.03125,175619.1875,294026.125,237509.5625,158692.5625,167087.4375,168332.25,177508.078125,0.02978515625,0.99169921875,-0.260498046875,-2.319335699081421,-0.1525878757238388,0.4272460639476776,66.66667175292969,41954.0,1.0
35186.557915,179617.546875,176411.953125,295739.0625,238023.828125,159022.921875,167106.921875,168390.625,177505.671875,0.029052734375,0.990966796875,-0.26220703125,-2.410888433456421,-0.1525878757238388,0.3967284858226776,66.66667175292969,41955.0,1.0
35186.5579215,180906.796875,176988.8125,298348.78125,238247.171875,159056.71875,167087.515625,168380.890625,177488.59375,0.02783203125,0.993408203125,-0.261962890625,-2.685546636581421,-0.1220703050494194,0.4272460639476776,66.66667175292969,41956.0,1.0
35186.5664023,179610.484375,176280.34375,296996.40625,237770.984375,158736.640625,167066.25,168325.453125,177489.40625,0.029541015625,0.992919921875,-0.260009765625,-2.716064214706421,-0.0915527269244194,0.5187987685203552,66.66667175292969,41957.0,1.0
35186.5694744,178142.78125,175610.59375,294196.90625,237481.84375,158660.5625,167087.4375,168333.5,177511.21875,0.029296875,0.9931640625,-0.2607421875,-2.807616949081421,-0.2441406100988388,0.5187987685203552,66.66667175292969,41958.0,1.0
35186.56948,179271.640625,176240.5625,295213.1875,237931.5625,158977.5,167114.25,168391.96875,177514.34375,0.029541015625,0.991943359375,-0.263427734375,-2.777099370956421,-0.2746581733226776,0.5187987685203552,66.66667175292969,41959.0,1.0
35186.5751715,180883.203125,177000.171875,298141.53125,238281.140625,159100.265625,167105.3125,168400.546875,177500.9375,0.02978515625,0.9912109375,-0.261474609375,-2.807616949081421,-0.1831054538488388,0.3967284858226776,66.66667175292969,41960.0,1.0
35186.586983,179968.296875,176466.40625,297507.71875,237881.3125,158801.90625,167080.015625,168344.046875,177497.53125,0.02978515625,0.99169921875,-0.260009765625,-2.746581792831421,-0.2136230319738388,0.3967284858226776,66.66667175292969,41961.0,1.0
35186.5869894,178239.25,175642.703125,294501.78125,237480.046875,158644.109375,167091.09375,168332.6875,177513.984375,0.0302734375,0.991455078125,-0.26123046875,-2.838134527206421,-0.2136230319738388,0.4882812201976776,66.66667175292969,41962.0,1.0
35186.5994737,178932.78125,176066.578125,294749.6875,237823.90625,158923.5,167118.453125,168389.015625,177520.515625,0.0302734375,0.99169921875,-0.260986328125,-2.807616949081421,-0.2441406100988388,0.5798339247703552,66.66667175292969,41963.0,1.0
35186.5994785,180752.75,176948.3125,297790.875,238259.859375,159114.75,167110.5,168405.203125,177505.84375,0.03076171875,0.98876953125,-0.258544921875,-2.746581792831421,-0.1525878757238388,0.5798339247703552,66.66667175292969,41964.0,1.0
35186.6019758,180285.328125,176626.625,297914.71875,237960.53125,158855.546875,167078.046875,168345.84375,177493.421875,0.030517578125,0.987060546875,-0.2568359375,-2.777099370956421,-0.0915527269244194,0.6713866591453552,66.66667175292969,41965.0,1.0
35186.6019818,178417.09375,175711.1875,294898.5625,237477.640625,158627.5625,167077.421875,168316.953125,177504.0625,0.028564453125,0.98828125,-0.257568359375,-2.716064214706421,-0.1220703050494194,0.7324218153953552,66.66667175292969,41966.0,1.0
35186.6064075,178632.828125,175901.703125,294360.96875,237708.21875,158851.890625,167106.828125,168369.078125,177515.234375,0.029296875,0.98828125,-0.25634765625,-2.655029058456421,-0.1831054538488388,0.9460448622703552,66.66667175292969,41967.0,1.0
35186.6151399,180549.4375,176854.78125,297328.09375,238220.34375,159110.90625,167109.515625,168404.578125,177504.6875,0.02685546875,0.987060546875,-0.2587890625,-2.532958745956421,-0.1525878757238388,0.9460448622703552,66.66667175292969,41968.0,1.0
35186.6176428,180568.390625,176780.21875,298227.09375,238056.640625,158922.96875,167087.078125,168362.640625,177494.5,0.02685546875,0.98388671875,-0.26025390625,-2.563476324081421,-0.0915527269244194,0.9765624403953552,66.66667175292969,41969.0,1.0
35186.6201334,178673.0625,175831.796875,295398.625,237524.484375,158639.90625,167075.546875,168314.90625,177494.765625,0.028076171875,0.985595703125,-0.260009765625,-2.441406011581421,-0.1525878757238388,1.0375975370407104,66.66667175292969,41970.0,1.0
35186.6264065,178394.828125,175777.25,294110.15625,237618.640625,158797.265625,167101.03125,168354.6875,177508.984375,0.029541015625,0.98681640625,-0.26220703125,-2.319335699081421,-0.1831054538488388,1.0986326932907104,66.66667175292969,41971.0,1.0
35186.628924,180277.640625,176732.125,296805.34375,238163.921875,159102.9375,167113.359375,168403.140625,177505.140625,0.030029296875,0.98876953125,-0.26171875,-2.227782964706421,-0.2441406100988388,1.0986326932907104,66.66667175292969,41972.0,1.0
35186.631995,180763.84375,176886.53125,298392.125,238124.671875,158977.140625,167082.0625,168361.65625,177486.359375,0.0302734375,0.991943359375,-0.2626953125,-2.197265386581421,-0.2441406100988388,1.1291502714157104,66.66667175292969,41973.0,1.0
35186.6320012,178969.4375,175963.84375,295931.65625,237582.25,158660.828125,167063.03125,168306.5,177489.671875,0.029541015625,0.9921875,-0.260009765625,-2.166747808456421,-0.1525878757238388,1.0986326932907104,66.66667175292969,41974.0,1.0
35186.6401458,178219.9375,175670.140625,293985.53125,237542.375,158734.671875,167086.8125,168336.625,177505.140625,0.029541015625,0.9912109375,-0.259521484375,-2.197265386581421,-0.1525878757238388,0.9765624403953552,66.66667175292969,41975.0,1.0
35186.6482455,179941.921875,176565.296875,296228.75,238091.953125,159059.84375,167102.71875,168390.984375,177499.5,0.031005859375,0.991455078125,-0.2587890625,-2.227782964706421,-0.1220703050494194,0.9460448622703552,66.66667175292969,41976.0,1.0
35186.6482518,180882.9375,176962.609375,298427.09375,238211.140625,159026.140625,167086.09375,168375.609375,177492.625,0.031005859375,0.9873046875,-0.260498046875,-2.319335699081421,-0.0610351525247097,0.8850097060203552,66.66667175292969,41977.0,1.0
35186.6501406,179305.703125,176130.59375,296496.1875,237699.375,158704.453125,167068.921875,168319.015625,177497.359375,0.031982421875,0.986083984375,-0.258544921875,-2.319335699081421,-0.0915527269244194,0.7629393935203552,66.66667175292969,41978.0,1.0
35186.6526557,178135.09375,175615.875,294020.125,237517.78125,158693.8125,167085.203125,168330.640625,177510.765625,0.032958984375,0.986083984375,-0.2587890625,-2.227782964706421,-0.0610351525247097,0.9155272841453552,66.66667175292969,41979.0,1.0
35186.6551372,179588.140625,176394.25,295668.0,238022.578125,159027.9375,167110.328125,168395.1875,177512.640625,0.033935546875,0.981201171875,-0.257080078125,-2.197265386581421,0.0915527269244194,0.8239745497703552,66.66667175292969,41980.0,1.0
35186.6682332,180920.21875,176997.296875,298323.75,238255.125,159075.578125,167098.34375,168389.46875,177498.96875,0.03466796875,0.980712890625,-0.26025390625,-2.197265386581421,0.0,0.8239745497703552,66.66667175292969,41981.0,1.0
35186.668238,179652.6875,176295.734375,297028.40625,237769.46875,158752.921875,167070.265625,168326.4375,177497.265625,0.035400390625,0.982177734375,-0.26171875,-1.9836424589157104,0.0915527269244194,0.7629393935203552,66.66667175292969,41982.0,1.0
35186.695652,178156.546875,175606.21875,294191.0,237459.046875,158669.5,167088.15625,168331.359375,177518.28125,0.03564453125,0.983642578125,-0.26220703125,-1.9226073026657104,0.1220703050494194,0.7629393935203552,66.66667175292969,41983.0,1.0
35186.6956582,179244.28125,176217.578125,295128.78125,237888.640625,158982.15625,167114.96875,168391.703125,177521.140625,0.032470703125,0.98291015625,-0.261474609375,-1.8920897245407104,0.2441406100988388,0.8239745497703552,66.66667175292969,41984.0,1.0
35186.6956606,180876.40625,176988.8125,298070.09375,238235.90625,159107.140625,167104.15625,168398.859375,177505.84375,0.03125,0.983154296875,-0.259033203125,-1.7700194120407104,0.3051757514476776,0.7934569716453552,66.66667175292969,41985.0,1.0
35186.6956628,180005.9375,176478.125,297509.6875,237844.921875,158813.0,167079.296875,168342.4375,177503.078125,0.031494140625,0.98193359375,-0.25927734375,-1.8005369901657104,0.2441406100988388,0.8239745497703552,66.66667175292969,41986.0,1.0
35186.6976496,178255.796875,175644.84375,294489.25,237435.34375,158644.90625,167085.640625,168323.671875,177512.5625,0.03125,0.982177734375,-0.2587890625,-1.7700194120407104,0.2441406100988388,0.8239745497703552,66.66667175292969,41987.0,1.0
35186.7033242,178897.296875,176043.15625,294653.84375,237771.703125,158912.234375,167107.90625,168375.875,177512.46875,0.03271484375,0.981689453125,-0.259521484375,-1.7089842557907104,0.3051757514476776,0.8239745497703552,66.66667175292969,41988.0,1.0
35186.7033304,180726.921875,176931.40625,297692.4375,238221.328125,159110.546875,167102.640625,168397.609375,177498.25,0.031494140625,0.9814453125,-0.260009765625,-1.7089842557907104,0.3356933295726776,0.7934569716453552,66.66667175292969,41989.0,1.0
35186.7033326,180309.828125,176639.9375,297902.1875,237950.0625,158866.734375,167079.828125,168348.703125,177495.84375,0.0322265625,0.982177734375,-0.260009765625,-1.5869139432907104,0.3967284858226776,0.7934569716453552,66.66667175292969,41990.0,1.0
35186.7033346,178434.15625,175721.28125,294900.15625,237472.453125,158637.671875,167080.453125,168320.796875,177511.75,0.033935546875,0.983154296875,-0.263916015625,-1.4953612089157104,0.5187987685203552,0.8544921278953552,66.66667175292969,41991.0,1.0
35186.7033366,178595.546875,175881.765625,294280.65625,237693.46875,158850.8125,167104.15625,168363.890625,177518.09375,0.033935546875,0.984375,-0.262451171875,-1.5869139432907104,0.3967284858226776,0.9155272841453552,66.66667175292969,41992.0,1.0
35186.705144,180509.65625,176829.578125,297225.8125,238212.65625,159110.09375,167103.34375,168397.6875,177503.96875,0.03125,0.985595703125,-0.264404296875,-1.5258787870407104,0.3356933295726776,0.8850097060203552,66.66667175292969,41993.0,1.0
35186.7089195,180568.484375,176770.203125,298186.9375,238063.796875,158924.84375,167075.1875,168353.96875,177492.078125,0.02880859375,0.988037109375,-0.262451171875,-1.4038084745407104,0.3356933295726776,0.7934569716453552,66.66667175292969,41994.0,1.0
35186.7389167,178680.65625,175823.5625,295388.96875,237533.875,158640.078125,167067.5,168314.1875,177501.734375,0.025390625,0.992431640625,-0.2666015625,-1.3427733182907104,0.2746581733226776,0.5798339247703552,66.66667175292969,41995.0,1.0
35186.7444784,178357.09375,175745.515625,294037.40625,237615.421875,158783.484375,167091.640625,168347.625,177511.75,0.024658203125,0.994873046875,-0.261962890625,-1.4648436307907104,0.2746581733226776,0.5187987685203552,66.66667175292969,41996.0,1.0
35186.7444847,180229.09375,176700.65625,296697.34375,238162.3125,159084.078125,167100.125,168392.0625,177500.484375,0.025390625,0.9970703125,-0.260986328125,-1.4953612089157104,0.03051757626235485,0.3051757514476776,66.66667175292969,41997.0,1.0
35186.7463974,180765.546875,176885.359375,298351.8125,238145.875,158970.0,167075.09375,168358.359375,177485.28125,0.02490234375,1.001220703125,-0.261474609375,-1.5563963651657104,-0.03051757626235485,0.1525878757238388,66.66667175292969,41998.0,1.0
35186.7489186,178992.59375,175977.078125,295940.25,237604.328125,158656.265625,167064.90625,168309.1875,177491.015625,0.02392578125,1.001220703125,-0.26220703125,-1.8005369901657104,-0.0915527269244194,0.1220703050494194,66.66667175292969,41999.0,1.0
35186.751408,178203.9375,175661.5625,293940.28125,237545.234375,158724.9375,167090.734375,168337.796875,177507.015625,0.026123046875,1.001708984375,-0.26220703125,-1.9531248807907104,-0.1220703050494194,0.03051757626235485,66.66667175292969,42000.0,1.0
35186.7539204,179907.6875,176546.25,296136.40625,238085.25,159054.390625,167106.921875,168394.109375,177503.078125,0.028076171875,1.001220703125,-0.26123046875,-2.197265386581421,-0.1831054538488388,-0.03051757626235485,66.66667175292969,42001.0,1.0
35186.7589433,180883.828125,176957.25,298376.59375,238197.71875,159020.953125,167083.140625,168368.453125,177485.5625,0.031005859375,1.00048828125,-0.260986328125,-2.319335699081421,-0.2746581733226776,-0.1525878757238388,66.66667175292969,42002.0,1.0
35186.7613972,179328.140625,176133.625,296500.1875,237675.3125,158694.4375,167065.078125,168311.234375,177488.953125,0.031982421875,1.00390625,-0.26171875,-2.441406011581421,-0.2441406100988388,-0.0915527269244194,66.66667175292969,42003.0,1.0
35186.7639219,178122.046875,175597.28125,293989.90625,237474.59375,158672.71875,167079.5625,168321.078125,177502.359375,0.034423828125,1.001953125,-0.26318359375,-2.502441167831421,-0.1525878757238388,-0.1220703050494194,66.66667175292969,42004.0,1.0
35186.766252,179538.078125,176352.671875,295571.09375,237970.0,158997.625,167097.890625,168380.265625,177502.625,0.033935546875,1.002685546875,-0.2626953125,-2.838134527206421,-0.1220703050494194,0.0610351525247097,66.66667175292969,42005.0,1.0
35186.7764064,180899.109375,176968.25,298261.4375,238216.765625,159048.859375,167081.265625,168371.59375,177483.5,0.034912109375,1.000732421875,-0.263916015625,-2.960204839706421,-0.0915527269244194,0.2441406100988388,66.66667175292969,42006.0,1.0
35186.7789253,179667.71875,176284.546875,297041.375,237746.84375,158725.109375,167052.296875,168306.859375,177477.421875,0.032958984375,0.997314453125,-0.26318359375,-3.051757574081421,0.0610351525247097,0.3967284858226776,66.66667175292969,42007.0,1.0
35186.7814074,178130.625,175568.765625,294175.34375,237426.859375,158627.484375,167064.015625,168307.65625,177497.984375,0.031005859375,0.995361328125,-0.261962890625,-3.204345464706421,0.03051757626235485,0.4882812201976776,66.66667175292969,42008.0,1.0
35186.7869715,179185.625,176169.75,295047.15625,237860.65625,158947.203125,167099.6875,168374.265625,177505.140625,0.02978515625,0.99267578125,-0.260009765625,-3.234863042831421,0.0,0.6713866591453552,66.66667175292969,42009.0,1.0
35186.7869797,180854.046875,176966.28125,298017.96875,238225.53125,159088.90625,167097.0,168387.59375,177489.75,0.028564453125,0.990478515625,-0.25732421875,-3.295898199081421,0.0,0.7019042372703552,66.66667175292969,42010.0,1.0
35186.7889299,180026.046875,176477.40625,297535.8125,237842.515625,158801.640625,167073.125,168333.953125,177487.4375,0.0283203125,0.9873046875,-0.255615234375,-3.234863042831421,0.0915527269244194,0.6713866591453552,66.66667175292969,42011.0,1.0
35186.7913932,178264.375,175637.25,294514.28125,237427.578125,158632.484375,167084.9375,168320.984375,177502.0,0.028564453125,0.9873046875,-0.257568359375,-3.326415777206421,0.03051757626235485,0.8239745497703552,66.66667175292969,42012.0,1.0
35186.796395,178869.578125,176023.21875,294608.34375,237756.5,158903.5625,167113.890625,168375.25,177507.546875,0.026123046875,0.984619140625,-0.2568359375,-3.173827886581421,-0.0610351525247097,0.8239745497703552,66.66667175292969,42013.0,1.0
35186.7994679,180717.34375,176925.421875,297652.65625,238216.5,159109.015625,167111.03125,168400.109375,177497.453125,0.025634765625,0.98388671875,-0.256103515625,-3.143310308456421,-0.0915527269244194,0.7934569716453552,66.66667175292969,42014.0,1.0
35186.7994727,180343.0,176655.046875,297933.46875,237951.9375,158866.90625,167081.359375,168346.375,177488.953125,0.02880859375,0.9833984375,-0.25634765625,-3.021239995956421,-0.2136230319738388,0.9155272841453552,66.66667175292969,42015.0,1.0
35186.8013915,178454.015625,175724.953125,294938.625,237458.953125,158625.0625,167075.0,168310.34375,177496.375,0.030029296875,0.982421875,-0.25634765625,-2.990722417831421,-0.1525878757238388,0.7934569716453552,66.66667175292969,42016.0,1.0
35186.8039126,178568.0,175863.4375,294246.6875,237665.3125,158834.453125,167101.03125,168359.78125,177508.71875,0.031005859375,0.984130859375,-0.25830078125,-2.990722417831421,-0.3356933295726776,0.9155272841453552,66.66667175292969,42017.0,1.0
35186.806399,180488.46875,176822.78125,297176.1875,238190.65625,159102.3125,167105.859375,168399.921875,177498.4375,0.031494140625,0.98388671875,-0.26025390625,-2.777099370956421,-0.3356933295726776,0.9155272841453552,66.66667175292969,42018.0,1.0
35186.8151381,180595.3125,176790.953125,298206.78125,238052.171875,158923.6875,167080.109375,168354.78125,177487.25,0.032958984375,0.98486328125,-0.256591796875,-2.716064214706421,-0.1831054538488388,0.9155272841453552,66.66667175292969,42019.0,1.0
35186.8207427,178716.421875,175849.5,295445.28125,237527.703125,158643.5625,167077.78125,168318.03125,177503.171875,0.03369140625,0.98291015625,-0.25830078125,-2.746581792831421,-0.2136230319738388,0.9460448622703552,66.66667175292969,42020.0,1.0
35186.8207491,178344.40625,175749.8125,294022.28125,237598.421875,158784.203125,167103.703125,168359.25,177519.171875,0.0341796875,0.98388671875,-0.25634765625,-2.563476324081421,-0.2136230319738388,0.9155272841453552,66.66667175292969,42021.0,1.0
35186.832636,180201.203125,176695.375,296638.875,238142.46875,159087.5625,167114.25,168408.6875,177510.953125,0.0341796875,0.981689453125,-0.258544921875,-2.502441167831421,-0.2136230319738388,0.9765624403953552,66.66667175292969,42022.0,1.0
35186.8376405,180782.890625,176900.46875,298354.0625,238136.484375,158978.671875,167086.09375,168369.890625,177491.453125,0.0361328125,0.97900390625,-0.259765625,-2.563476324081421,-0.0915527269244194,1.0986326932907104,66.66667175292969,42023.0,1.0
35186.8401331,179020.859375,175991.03125,295989.5,237589.9375,158659.125,167065.0,168308.28125,177488.0625,0.03515625,0.980712890625,-0.25830078125,-2.349853277206421,-0.0915527269244194,1.0070799589157104,66.66667175292969,42024.0,1.0
35186.8426509,178187.125,175653.703125,293934.3125,237516.171875,158719.03125,167091.71875,168337.171875,177504.859375,0.03515625,0.98291015625,-0.25634765625,-2.227782964706421,0.03051757626235485,1.0070799589157104,66.66667175292969,42025.0,1.0
35186.84573,179874.234375,176535.875,296082.3125,238055.296875,159051.53125,167113.09375,168395.640625,177500.84375,0.035400390625,0.983154296875,-0.2568359375,-2.227782964706421,0.2441406100988388,0.9765624403953552,66.66667175292969,42026.0,1.0
35186.8457362,180904.203125,176978.796875,298386.5,238186.546875,159032.9375,167099.234375,168380.703125,177490.46875,0.033203125,0.98388671875,-0.255859375,-2.227782964706421,0.1831054538488388,0.9460448622703552,66.66667175292969,42027.0,1.0
35186.8476511,179384.46875,176170.640625,296578.875,237670.3125,158711.78125,167081.984375,168325.984375,177497.09375,0.03466796875,0.9853515625,-0.25390625,-2.166747808456421,0.3051757514476776,0.9155272841453552,66.66667175292969,42028.0,1.0
35186.8563884,178137.515625,175610.328125,294016.46875,237454.578125,158681.390625,167090.109375,168329.75,177507.453125,0.037353515625,0.985595703125,-0.255859375,-2.075195074081421,0.3051757514476776,0.8544921278953552,66.66667175292969,42029.0,1.0
35186.8594864,179522.15625,176351.25,295528.15625,237946.484375,159006.203125,167108.53125,168387.328125,177504.78125,0.03466796875,0.985595703125,-0.255126953125,-2.075195074081421,0.3662109076976776,0.7934569716453552,66.66667175292969,42030.0,1.0
35186.8594922,180909.9375,176980.765625,298248.71875,238205.0625,159061.1875,167087.796875,168380.703125,177486.53125,0.035888671875,0.986572265625,-0.2587890625,-1.9836424589157104,0.3967284858226776,0.7019042372703552,66.66667175292969,42031.0,1.0
35186.8663854,179715.359375,176316.296875,297098.0625,237754.4375,158745.578125,167061.140625,168324.203125,177488.421875,0.03662109375,0.98681640625,-0.2578125,-1.9531248807907104,0.4577636420726776,0.6103515028953552,66.66667175292969,42032.0,1.0
35186.868922,178164.25,175599.25,294219.6875,237435.078125,158646.515625,167076.171875,168324.734375,177511.03125,0.0361328125,0.98779296875,-0.25830078125,-1.9226073026657104,0.5493163466453552,0.5187987685203552,66.66667175292969,42033.0,1.0
35186.878925,179159.96875,176163.046875,295007.09375,237849.21875,158945.765625,167093.78125,168372.65625,177503.703125,0.03369140625,0.98779296875,-0.2587890625,-1.8310545682907104,0.5798339247703552,0.5187987685203552,66.66667175292969,42034.0,1.0
35186.8839363,180843.140625,176961.8125,297989.4375,238224.453125,159086.671875,167083.5,168374.265625,177480.546875,0.032958984375,0.988037109375,-0.25927734375,-1.9226073026657104,0.5493163466453552,0.5187987685203552,66.66667175292969,42035.0,1.0
35186.8863955,180063.96875,176497.875,297586.3125,237860.484375,158804.59375,167062.578125,168323.484375,177483.140625,0.033203125,0.987548828125,-0.255615234375,-1.8615721464157104,0.5798339247703552,0.3967284858226776,66.66667175292969,42036.0,1.0
35186.8889224,178278.5,175638.9375,294549.25,237434.015625,158621.671875,167063.65625,168307.296875,177502.625,0.03369140625,0.987060546875,-0.258544921875,-1.9226073026657104,0.5493163466453552,0.3356933295726776,66.66667175292969,42037.0,1.0
35186.8913867,178828.71875,175990.3125,294551.84375,237750.515625,158884.515625,167088.0625,168362.46875,177513.265625,0.0341796875,0.988037109375,-0.256591796875,-1.9226073026657104,0.5493163466453552,0.2746581733226776,66.66667175292969,42038.0,1.0
35186.8939333,180692.21875,176903.875,297595.875,238215.6875,159098.46875,167086.625,168385.890625,177496.90625,0.032470703125,0.98828125,-0.260498046875,-1.8920897245407104,0.4272460639476776,0.3967284858226776,66.66667175292969,42039.0,1.0
35186.8982391,180366.875,176660.15625,297955.375,237956.0625,158859.75,167058.640625,168332.25,177483.3125,0.03076171875,0.9892578125,-0.259765625,-1.8615721464157104,0.5493163466453552,0.4577636420726776,66.66667175292969,42040.0,1.0
35186.8982447,178479.046875,175733.984375,294979.125,237455.46875,158616.75,167057.390625,168301.40625,177495.65625,0.0322265625,0.988525390625,-0.260498046875,-1.8005369901657104,0.5187987685203552,0.3967284858226776,66.66667175292969,42041.0,1.0
35186.9069759,178545.203125,175852.625,294212.0,237642.5,158821.046875,167089.21875,168353.609375,177508.890625,0.031494140625,0.989990234375,-0.257080078125,-1.7700194120407104,0.5187987685203552,0.3662109076976776,66.66667175292969,42042.0,1.0
35186.9069829,180460.9375,176807.765625,297116.9375,238161.78125,159091.859375,167095.03125,168394.390625,177498.703125,0.02978515625,0.99169921875,-0.260498046875,-1.7089842557907104,0.4882812201976776,0.3967284858226776,66.66667175292969,42043.0,1.0
35186.9114014,180617.578125,176799.890625,298219.5,238030.984375,158920.109375,167069.546875,168349.59375,177483.953125,0.029541015625,0.99169921875,-0.257080078125,-1.6479490995407104,0.4577636420726776,0.3967284858226776,66.66667175292969,42044.0,1.0
35186.9139344,178743.6875,175858.96875,295484.875,237493.828125,158632.75,167064.015625,168305.875,177490.734375,0.03173828125,0.99072265625,-0.2568359375,-1.6479490995407104,0.2441406100988388,0.3967284858226776,66.66667175292969,42045.0,1.0
35186.9163935,178319.359375,175729.78125,293982.6875,237540.84375,158760.6875,167090.390625,168343.15625,177502.71875,0.03125,0.991943359375,-0.258056640625,-1.6174315214157104,0.1831054538488388,0.4272460639476776,66.66667175292969,42046.0,1.0
35186.9301378,180167.578125,176673.921875,296559.03125,238092.578125,159073.625,167105.046875,168395.90625,177497.71875,0.030517578125,0.9921875,-0.2607421875,-1.5869139432907104,0.1220703050494194,0.3967284858226776,66.66667175292969,42047.0,1.0
35186.9382208,180796.296875,176907.984375,298340.90625,238100.53125,158975.53125,167079.390625,168359.6875,177481.265625,0.02783203125,0.99169921875,-0.259033203125,-1.6174315214157104,0.1525878757238388,0.3051757514476776,66.66667175292969,42048.0,1.0
35186.9382272,179059.921875,176014.09375,296030.1875,237565.890625,158661.1875,167066.25,168312.046875,177490.203125,0.0263671875,0.99609375,-0.2607421875,-1.5869139432907104,0.03051757626235485,0.4272460639476776,66.66667175292969,42049.0,1.0
35186.9401523,178187.9375,175659.328125,293920.0,237484.53125,158715.8125,167093.421875,168345.03125,177510.671875,0.0283203125,0.9990234375,-0.26025390625,-1.6479490995407104,-0.1525878757238388,0.4577636420726776,66.66667175292969,42050.0,1.0
35186.9451539,179846.53125,176527.921875,296004.6875,238022.046875,159046.609375,167112.109375,168403.765625,177507.90625,0.028076171875,0.99658203125,-0.258544921875,-1.8005369901657104,-0.0915527269244194,0.4577636420726776,66.66667175292969,42051.0,1.0
35186.9482185,180904.65625,176977.984375,298343.78125,238168.40625,159026.5,167085.828125,168378.734375,177488.421875,0.02978515625,0.994140625,-0.258544921875,-1.9836424589157104,-0.0610351525247097,0.4272460639476776,66.66667175292969,42052.0,1.0
35186.9482246,179404.671875,176173.6875,296582.71875,237662.53125,158696.59375,167064.28125,168319.375,177489.046875,0.032958984375,0.986572265625,-0.258544921875,-2.044677495956421,-0.1220703050494194,0.4882812201976776,66.66667175292969,42053.0,1.0
35186.9501423,178128.65625,175598.265625,293982.125,237446.078125,158661.453125,167080.734375,168331.0,177506.03125,0.0341796875,0.98583984375,-0.259765625,-2.044677495956421,-0.0610351525247097,0.5187987685203552,66.66667175292969,42054.0,1.0
35186.9551585,179485.328125,176331.84375,295429.5625,237937.546875,158989.484375,167105.5,168391.96875,177506.75,0.0361328125,0.983642578125,-0.26123046875,-1.9531248807907104,-0.1831054538488388,0.5798339247703552,66.66667175292969,42055.0,1.0
35186.9576518,180920.21875,176990.328125,298187.75,238206.578125,159060.921875,167091.28125,168385.359375,177489.21875,0.037353515625,0.984619140625,-0.258544921875,-1.8005369901657104,-0.1525878757238388,0.7019042372703552,66.66667175292969,42056.0,1.0
35186.9663851,179761.953125,176339.0,297100.75,237746.84375,158747.734375,167064.1875,168323.21875,177485.734375,0.037353515625,0.986083984375,-0.2578125,-1.6479490995407104,-0.0610351525247097,0.8544921278953552,66.66667175292969,42057.0,1.0
35186.9761745,178170.5,175594.421875,294187.3125,237395.65625,158633.203125,167071.703125,168317.234375,177500.046875,0.037353515625,0.986328125,-0.2587890625,-1.7395018339157104,-0.03051757626235485,1.0986326932907104,66.66667175292969,42058.0,1.0
35186.9761808,179138.421875,176148.203125,294907.5,237803.4375,158940.671875,167101.921875,168376.328125,177504.859375,0.039794921875,0.983642578125,-0.26171875,-1.6784666776657104,0.1525878757238388,1.2817381620407104,66.66667175292969,42059.0,1.0
35186.9761832,180848.234375,176962.34375,297908.28125,238186.28125,159089.265625,167090.828125,168384.640625,177486.09375,0.0380859375,0.982666015625,-0.258544921875,-1.6174315214157104,0.0915527269244194,1.3122557401657104,66.66667175292969,42060.0,1.0
35186.9826608,180107.59375,176512.984375,297580.5,237827.9375,158804.953125,167060.703125,168326.609375,177479.296875,0.033447265625,0.984375,-0.259765625,-1.4648436307907104,0.0915527269244194,1.3732908964157104,66.66667175292969,42061.0,1.0
35186.9851428,178302.203125,175643.0625,294547.0,237391.0,158613.625,167060.171875,168300.5,177487.515625,0.030029296875,0.984619140625,-0.259033203125,-1.3427733182907104,0.1831054538488388,1.2817381620407104,66.66667175292969,42062.0,1.0
35186.9894797,178801.359375,175975.03125,294477.375,237694.09375,158870.03125,167087.171875,168352.8125,177492.625,0.026611328125,0.98583984375,-0.258544921875,-1.4038084745407104,0.1220703050494194,1.0681151151657104,66.66667175292969,42063.0,1.0
35186.989486,180675.59375,176897.25,297525.34375,238172.78125,159095.515625,167094.5,168386.34375,177483.765625,0.0283203125,0.984375,-0.2587890625,-1.4343260526657104,0.0610351525247097,0.9765624403953552,66.66667175292969,42064.0,1.0
35187.0026392,180396.828125,176676.328125,297963.25,237928.609375,158865.75,167069.828125,168336.453125,177474.375,0.029541015625,0.982666015625,-0.259765625,-1.5869139432907104,-0.03051757626235485,0.8544921278953552,66.66667175292969,42065.0,1.0
35187.0075861,178504.96875,175748.46875,295012.03125,237432.046875,158621.484375,167070.171875,168309.0,177490.390625,0.031005859375,0.9794921875,-0.26123046875,-1.5258787870407104,-0.0610351525247097,0.7324218153953552,66.66667175292969,42066.0,1.0
35187.0075923,178512.390625,175831.796875,294157.71875,237605.84375,158811.65625,167093.25,168353.34375,177500.578125,0.033935546875,0.976806640625,-0.262451171875,-1.2817381620407104,-0.0915527269244194,0.6408690810203552,66.66667175292969,42067.0,1.0
35187.0075946,180428.75,176789.609375,297041.375,238136.03125,159087.203125,167097.53125,168391.53125,177487.25,0.03466796875,0.97802734375,-0.265625,-1.1291502714157104,0.0610351525247097,0.5187987685203552,66.66667175292969,42068.0,1.0
35187.0107459,180635.984375,176809.28125,298225.5625,238026.328125,158927.171875,167073.390625,168351.015625,177476.53125,0.0361328125,0.982666015625,-0.264892578125,-0.9765624403953552,0.1525878757238388,0.3967284858226776,66.66667175292969,42069.0,1.0
35187.0107521,178765.5,175863.890625,295525.5625,237488.90625,158633.203125,167064.546875,168308.734375,177486.0,0.039794921875,0.98583984375,-0.263916015625,-0.9765624403953552,0.2441406100988388,0.3356933295726776,66.66667175292969,42070.0,1.0
35187.0313878,178296.828125,175714.578125,293970.0625,237531.375,158762.921875,167097.8125,168354.328125,177506.46875,0.038818359375,0.987060546875,-0.26513671875,-0.9155272841453552,0.2746581733226776,0.1831054538488388,66.66667175292969,42071.0,1.0
35187.0350699,180130.75,176652.28125,296510.9375,238075.953125,159075.9375,167107.28125,168400.640625,177495.390625,0.039794921875,0.98828125,-0.26513671875,-0.9155272841453552,0.3967284858226776,0.2746581733226776,66.66667175292969,42072.0,1.0
35187.035083,180799.0625,176902.078125,298345.375,238091.515625,158982.875,167079.5625,168368.375,177476.25,0.038330078125,0.990478515625,-0.26318359375,-0.9765624403953552,0.5187987685203552,0.3051757514476776,66.66667175292969,42073.0,1.0
35187.0350853,179079.859375,176013.203125,296077.5625,237556.40625,158666.640625,167069.1875,168319.28125,177482.515625,0.038330078125,0.992431640625,-0.263671875,-1.0375975370407104,0.7324218153953552,0.4272460639476776,66.66667175292969,42074.0,1.0
35187.0376572,178161.203125,175628.65625,293905.0625,237464.59375,158709.90625,167090.5625,168340.734375,177499.0625,0.04150390625,0.994140625,-0.26416015625,-1.1596678495407104,0.8850097060203552,0.6408690810203552,66.66667175292969,42075.0,1.0
35187.0401506,179793.234375,176484.28125,295931.9375,238009.34375,159039.015625,167107.546875,168395.71875,177497.265625,0.040283203125,0.9931640625,-0.260986328125,-1.2817381620407104,0.9765624403953552,0.7324218153953552,66.66667175292969,42076.0,1.0
35187.0426512,180895.09375,176962.96875,298322.125,238176.71875,159032.9375,167088.59375,168377.671875,177484.75,0.041015625,0.9912109375,-0.260986328125,-1.3122557401657104,1.2817381620407104,0.7629393935203552,66.66667175292969,42077.0,1.0
35187.0451371,179427.5625,176176.09375,296627.875,237674.6875,158709.109375,167066.875,168319.375,177487.34375,0.040771484375,0.99072265625,-0.26318359375,-1.3732908964157104,1.4953612089157104,0.8850097060203552,66.66667175292969,42078.0,1.0
35187.0594739,178117.390625,175586.1875,293992.59375,237438.21875,158670.296875,167082.78125,168330.1875,177504.328125,0.040283203125,0.989501953125,-0.2626953125,-1.4648436307907104,1.6479490995407104,1.0375975370407104,66.66667175292969,42079.0,1.0
35187.0594813,179438.296875,176301.53125,295370.625,237911.796875,158997.265625,167100.671875,168388.03125,177505.5,0.040283203125,0.991455078125,-0.261962890625,-1.5563963651657104,1.8310545682907104,1.0986326932907104,66.66667175292969,42080.0,1.0
35187.0613954,180907.078125,176982.375,298166.03125,238195.75,159081.21875,167090.734375,168387.40625,177493.78125,0.039794921875,0.9931640625,-0.265625,-1.4953612089157104,2.014159917831421,1.2512205839157104,66.66667175292969,42081.0,1.0
35187.0707145,179796.28125,176361.4375,297163.0625,237752.296875,158771.953125,167070.265625,168330.375,177492.890625,0.0400390625,0.994140625,-0.262939453125,-1.5258787870407104,2.105712652206421,1.4953612089157104,66.66667175292969,42082.0,1.0
35187.0707208,178181.234375,175604.796875,294228.09375,237398.15625,158645.890625,167079.03125,168322.59375,177505.140625,0.03857421875,0.993408203125,-0.26416015625,-1.6174315214157104,2.349853277206421,1.6174315214157104,66.66667175292969,42083.0,1.0
35187.0769731,179097.734375,176132.203125,294861.1875,237795.484375,158940.9375,167101.921875,168380.171875,177507.8125,0.035888671875,0.99462890625,-0.26025390625,-1.7089842557907104,2.410888433456421,1.8005369901657104,66.66667175292969,42084.0,1.0
35187.0769795,180821.59375,176951.078125,297860.53125,238189.3125,159096.328125,167090.390625,168393.046875,177494.9375,0.039306640625,0.996337890625,-0.259521484375,-1.8310545682907104,2.471923589706421,1.8310545682907104,66.66667175292969,42085.0,1.0
35187.0793216,180125.203125,176522.46875,297598.03125,237841.265625,158817.015625,167059.8125,168331.53125,177486.8125,0.03759765625,0.994873046875,-0.2607421875,-2.044677495956421,2.685546636581421,1.8920897245407104,66.66667175292969,42086.0,1.0
35187.0793259,178307.109375,175643.859375,294555.78125,237396.015625,158617.1875,167059.1875,168308.90625,177498.15625,0.036376953125,0.99462890625,-0.261962890625,-2.136230230331421,2.838134527206421,1.9531248807907104,66.66667175292969,42087.0,1.0
35187.0864101,178759.78125,175944.359375,294400.28125,237687.65625,158869.859375,167087.34375,168367.109375,177506.921875,0.03759765625,0.993408203125,-0.260009765625,-2.227782964706421,2.929687261581421,2.014159917831421,66.66667175292969,42088.0,1.0
35187.0926374,180646.71875,176870.078125,297428.6875,238171.171875,159099.546875,167091.1875,168398.765625,177496.828125,0.035400390625,0.994384765625,-0.26123046875,-2.410888433456421,3.021239995956421,2.044677495956421,66.66667175292969,42089.0,1.0
35187.0994678,180412.921875,176664.890625,297937.5,237935.21875,158872.71875,167062.40625,168347.453125,177488.140625,0.036865234375,0.994384765625,-0.26123046875,-2.502441167831421,3.173827886581421,1.9531248807907104,66.66667175292969,42090.0,1.0
35187.0994741,178522.140625,175733.0,294999.84375,237430.796875,158625.78125,167062.40625,168319.8125,177504.421875,0.03515625,0.994384765625,-0.261474609375,-2.655029058456421,3.265380620956421,2.044677495956421,66.66667175292969,42091.0,1.0
35187.1057376,178487.265625,175797.640625,294083.96875,237592.890625,158811.46875,167083.5,168359.0625,177511.03125,0.033447265625,0.992919921875,-0.2607421875,-2.685546636581421,3.417968511581421,1.9531248807907104,66.66667175292969,42092.0,1.0
35187.1057438,180396.015625,176749.5625,296934.28125,238117.4375,159083.09375,167082.34375,168386.96875,177490.390625,0.0302734375,0.994873046875,-0.2587890625,-2.746581792831421,3.448486089706421,2.105712652206421,66.66667175292969,42093.0,1.0
35187.107641,180652.265625,176787.5625,298186.21875,238018.28125,158928.515625,167060.96875,168350.046875,177477.6875,0.02880859375,0.992431640625,-0.260498046875,-2.868652105331421,3.356933355331421,2.105712652206421,66.66667175292969,42094.0,1.0
35187.1213872,178796.796875,175847.625,295529.9375,237478.171875,158634.453125,167054.53125,168307.65625,177487.875,0.0302734375,0.992919921875,-0.259765625,-2.960204839706421,3.204345464706421,2.227782964706421,66.66667175292969,42095.0,1.0
35187.1244625,178278.0625,175669.4375,293904.25,237496.421875,158743.796875,167074.296875,168334.484375,177495.390625,0.02734375,0.991943359375,-0.258544921875,-2.960204839706421,3.082275152206421,2.166747808456421,66.66667175292969,42096.0,1.0
35187.1244686,180097.484375,176602.296875,296401.125,238042.25,159060.5625,167089.578125,168387.140625,177488.0625,0.0263671875,0.990234375,-0.25830078125,-3.051757574081421,2.960204839706421,2.105712652206421,66.66667175292969,42097.0,1.0
35187.1326522,180815.703125,176884.828125,298308.28125,238078.359375,158980.28125,167068.390625,168358.984375,177474.640625,0.026123046875,0.990234375,-0.260498046875,-3.021239995956421,2.899169683456421,2.105712652206421,66.66667175292969,42098.0,1.0
35187.1376501,179115.171875,176007.296875,296101.25,237546.390625,158664.484375,167054.078125,168304.4375,177479.296875,0.025390625,0.989990234375,-0.2607421875,-2.990722417831421,2.593993902206421,2.014159917831421,66.66667175292969,42099.0,1.0
35187.1401299,178151.09375,175603.890625,293882.1875,237432.21875,158698.109375,167074.46875,168325.71875,177491.8125,0.025390625,0.991455078125,-0.26123046875,-3.021239995956421,2.288818120956421,1.8615721464157104,66.66667175292969,42100.0,1.0
35187.1426376,179745.578125,176439.3125,295837.5,237957.390625,159024.0,167089.484375,168380.171875,177486.71875,0.02587890625,0.990478515625,-0.25830078125,-3.112792730331421,2.136230230331421,1.7700194120407104,66.66667175292969,42101.0,1.0
35187.1451495,180890.796875,176941.328125,298280.90625,238135.765625,159029.625,167071.96875,168366.046875,177472.953125,0.0263671875,0.9912109375,-0.259765625,-3.265380620956421,1.8310545682907104,1.6479490995407104,66.66667175292969,42102.0,1.0
35187.1725609,179464.75,176182.359375,296667.375,237642.953125,158713.578125,167060.171875,168317.5,177482.0625,0.0263671875,0.9921875,-0.257080078125,-3.173827886581421,1.6479490995407104,1.6174315214157104,66.66667175292969,42103.0,1.0
35187.1725685,178119.0,175576.53125,293992.40625,237402.265625,158669.40625,167080.546875,168333.3125,177507.8125,0.0302734375,0.992431640625,-0.2587890625,-3.173827886581421,1.4648436307907104,1.5258787870407104,66.66667175292969,42104.0,1.0
35187.1725714,179401.8125,176274.890625,295296.15625,237884.171875,158994.578125,167106.65625,168396.984375,177514.25,0.03515625,0.994384765625,-0.2587890625,-3.326415777206421,1.4038084745407104,1.4038084745407104,66.66667175292969,42105.0,1.0
35187.1800593,180892.140625,176963.953125,298110.875,238184.40625,159075.9375,167090.296875,168389.46875,177491.453125,0.039306640625,0.99560546875,-0.2568359375,-3.387450933456421,1.3732908964157104,1.3732908964157104,66.66667175292969,42106.0,1.0
35187.1800641,179814.515625,176355.8125,297173.25,237753.546875,158766.59375,167063.296875,168325.71875,177483.5,0.03857421875,0.996337890625,-0.258056640625,-3.570556402206421,1.3427733182907104,1.1291502714157104,66.66667175292969,42107.0,1.0
35187.180066,178179.359375,175589.140625,294221.3125,237402.625,158643.296875,167077.515625,168325.0,177504.0625,0.035400390625,0.99169921875,-0.255126953125,-3.723144292831421,1.4343260526657104,0.9155272841453552,66.66667175292969,42108.0,1.0
35187.1826352,179056.171875,176095.453125,294781.09375,237795.125,158940.3125,167106.484375,168389.640625,177513.1875,0.0302734375,0.98583984375,-0.2607421875,-3.906249761581421,1.3427733182907104,0.6713866591453552,66.66667175292969,42109.0,1.0
35187.1851576,180804.703125,176930.609375,297802.5,238194.6875,159105.453125,167103.53125,168413.25,177505.40625,0.029296875,0.98193359375,-0.259033203125,-3.845214605331421,1.3732908964157104,0.6408690810203552,66.66667175292969,42110.0,1.0
35187.1874956,180152.5625,176528.8125,297630.84375,237851.453125,158836.515625,167078.9375,168357.734375,177504.859375,0.02880859375,0.979248046875,-0.26025390625,-3.753661870956421,1.1291502714157104,0.3967284858226776,66.66667175292969,42111.0,1.0
35187.1951504,178318.46875,175639.921875,294591.09375,237382.78125,158627.03125,167072.234375,168318.125,177502.453125,0.028564453125,0.98193359375,-0.260009765625,-3.509521245956421,1.0375975370407104,0.2441406100988388,66.66667175292969,42112.0,1.0
35187.1976339,178727.15625,175918.34375,294366.78125,237647.25,158871.015625,167099.234375,168369.171875,177505.84375,0.0302734375,0.982666015625,-0.260986328125,-3.479003667831421,0.9460448622703552,0.2136230319738388,66.66667175292969,42113.0,1.0
35187.2001569,180618.640625,176842.09375,297389.0,238119.578125,159102.3125,167097.8125,168400.203125,177495.03125,0.029052734375,0.98291015625,-0.260986328125,-3.540038824081421,0.7934569716453552,0.0915527269244194,66.66667175292969,42114.0,1.0
35187.2026503,180441.078125,176672.125,297980.25,237894.359375,158885.421875,167072.140625,168351.203125,177487.078125,0.0302734375,0.984130859375,-0.259521484375,-3.509521245956421,0.7019042372703552,-0.0610351525247097,66.66667175292969,42115.0,1.0
35187.2051458,178550.125,175744.796875,295062.875,237382.0625,158631.765625,167074.375,168320.09375,177502.625,0.02978515625,0.983154296875,-0.258056640625,-3.387450933456421,0.6103515028953552,-0.1525878757238388,66.66667175292969,42116.0,1.0
35187.2076341,178471.890625,175790.578125,294072.25,237530.03125,158814.25,167100.3125,168367.296875,177517.109375,0.02978515625,0.982421875,-0.25634765625,-3.326415777206421,0.4577636420726776,-0.1525878757238388,66.66667175292969,42117.0,1.0
35187.2182396,180388.328125,176754.390625,296902.09375,238068.703125,159102.046875,167113.09375,168419.421875,177513.453125,0.029052734375,0.98095703125,-0.25537109375,-3.295898199081421,0.3967284858226776,-0.0915527269244194,66.66667175292969,42118.0,1.0
35187.2182445,180687.125,176820.640625,298218.5,237991.90625,158953.640625,167090.828125,168379.359375,177498.703125,0.02880859375,0.9794921875,-0.2578125,-3.204345464706421,0.3051757514476776,-0.0610351525247097,66.66667175292969,42119.0,1.0
35187.2201341,178827.90625,175876.3125,295576.625,237453.671875,158645.53125,167072.40625,168325.453125,177497.984375,0.02783203125,0.98095703125,-0.25537109375,-2.990722417831421,0.1525878757238388,-0.1220703050494194,66.66667175292969,42120.0,1.0
35187.2226433,178263.9375,175678.109375,293877.71875,237475.40625,158751.84375,167098.78125,168360.671875,177511.578125,0.02587890625,0.9814453125,-0.255859375,-2.929687261581421,-0.0610351525247097,-0.2136230319738388,66.66667175292969,42121.0,1.0
35187.2251317,180072.8125,176609.71875,296321.84375,238039.734375,159074.421875,167117.75,168417.1875,177508.4375,0.0263671875,0.981689453125,-0.254150390625,-2.838134527206421,-0.3051757514476776,-0.1525878757238388,66.66667175292969,42122.0,1.0
35187.2289355,180839.03125,176911.46875,298281.71875,238101.796875,159003.171875,167096.640625,168390.890625,177494.9375,0.02685546875,0.98388671875,-0.25244140625,-2.685546636581421,-0.3967284858226776,-0.1831054538488388,66.66667175292969,42123.0,1.0
35187.2357098,179158.890625,176039.84375,296120.21875,237575.890625,158682.90625,167083.140625,168340.296875,177503.25,0.026611328125,0.98291015625,-0.25048828125,-2.593993902206421,-0.6103515028953552,-0.1831054538488388,66.66667175292969,42124.0,1.0
35187.2357147,178150.203125,175611.140625,293840.875,237447.59375,158706.25,167098.515625,168360.046875,177522.21875,0.02685546875,0.984375,-0.254638671875,-2.532958745956421,-0.7629393935203552,0.0,66.66667175292969,42125.0,1.0
35187.2439209,179725.828125,176441.015625,295739.0,237970.984375,159037.234375,167115.15625,168416.203125,177519.796875,0.028564453125,0.984375,-0.25439453125,-2.532958745956421,-0.7934569716453552,0.0915527269244194,66.66667175292969,42126.0,1.0
35187.2469639,180902.59375,176957.609375,298215.65625,238155.53125,159044.828125,167093.25,168395.375,177499.234375,0.02880859375,0.986083984375,-0.25732421875,-2.288818120956421,-1.0681151151657104,0.2441406100988388,66.66667175292969,42127.0,1.0
35187.24697,179490.859375,176197.296875,296649.3125,237656.8125,158716.609375,167064.90625,168330.90625,177497.71875,0.028564453125,0.98779296875,-0.258544921875,-2.288818120956421,-1.1291502714157104,0.2441406100988388,66.66667175292969,42128.0,1.0
35187.2489313,178105.0625,175566.34375,293931.09375,237392.171875,158658.5,167077.875,168338.859375,177516.046875,0.0302734375,0.988037109375,-0.256591796875,-2.288818120956421,-1.2817381620407104,0.4272460639476776,66.66667175292969,42129.0,1.0
35187.2651473,179359.078125,176251.375,295165.4375,237856.453125,158983.40625,167103.796875,168400.203125,177521.671875,0.030517578125,0.989990234375,-0.254150390625,-2.136230230331421,-1.4038084745407104,0.5187987685203552,66.66667175292969,42130.0,1.0
35187.2682082,180879.4375,176955.109375,298008.125,238155.25,159072.359375,167085.46875,168390.984375,177497.625,0.0322265625,0.991455078125,-0.25439453125,-2.166747808456421,-1.4038084745407104,0.6713866591453552,66.66667175292969,42131.0,1.0
35187.2682128,179831.234375,176361.796875,297139.71875,237714.921875,158761.859375,167058.828125,168330.015625,177490.5625,0.033447265625,0.99072265625,-0.2568359375,-2.197265386581421,-1.4343260526657104,0.7934569716453552,66.66667175292969,42132.0,1.0
35187.2701298,178168.890625,175580.03125,294172.84375,237330.75,158620.953125,167066.515625,168318.03125,177502.625,0.034423828125,0.988525390625,-0.25341796875,-2.227782964706421,-1.4038084745407104,0.8850097060203552,66.66667175292969,42133.0,1.0
35187.2726456,179003.859375,176068.90625,294658.15625,237702.59375,158910.453125,167092.4375,168377.84375,177506.03125,0.03564453125,0.989501953125,-0.250732421875,-2.197265386581421,-1.4648436307907104,0.7934569716453552,66.66667175292969,42134.0,1.0
35187.275143,180770.453125,176914.25,297684.84375,238110.734375,159081.75,167085.640625,168392.5,177488.78125,0.03759765625,0.989501953125,-0.255859375,-2.166747808456421,-1.4343260526657104,0.8544921278953552,66.66667175292969,42135.0,1.0
35187.2813875,180161.6875,176531.3125,297585.59375,237785.734375,158816.21875,167062.21875,168339.3125,177482.609375,0.03857421875,0.991943359375,-0.256591796875,-2.166747808456421,-1.3732908964157104,0.8544921278953552,66.66667175292969,42136.0,1.0
35187.2931884,178324.546875,175644.671875,294564.53125,237335.390625,158613.890625,167067.765625,168321.78125,177499.6875,0.037841796875,0.989990234375,-0.25732421875,-2.136230230331421,-1.2207030057907104,0.8850097060203552,66.66667175292969,42137.0,1.0
35187.2931945,178684.0625,175901.984375,294268.25,237601.46875,158853.5,167088.59375,168368.375,177502.28125,0.0400390625,0.98876953125,-0.258056640625,-2.197265386581421,-1.2512205839157104,0.8544921278953552,66.66667175292969,42138.0,1.0
35187.2949886,180581.09375,176832.34375,297283.84375,238093.125,159088.640625,167084.484375,168395.09375,177485.375,0.0400390625,0.988037109375,-0.254638671875,-2.166747808456421,-1.0986326932907104,0.8239745497703552,66.66667175292969,42139.0,1.0
35187.3014042,180446.359375,176679.90625,297950.375,237894.1875,158881.921875,167064.09375,168355.140625,177483.671875,0.042724609375,0.989990234375,-0.253173828125,-2.166747808456421,-1.0986326932907104,0.8544921278953552,66.66667175292969,42140.0,1.0
35187.3039162,178552.53125,175738.90625,295050.5625,237387.25,158621.484375,167059.265625,168319.734375,177498.875,0.043701171875,0.989501953125,-0.255615234375,-2.044677495956421,-1.0070799589157104,0.7629393935203552,66.66667175292969,42141.0,1.0
35187.3113848,178422.359375,175753.109375,293989.46875,237530.65625,158794.9375,167081.984375,168359.515625,177508.53125,0.04296875,0.990478515625,-0.256103515625,-2.075195074081421,-0.8850097060203552,0.7324218153953552,66.66667175292969,42142.0,1.0
35187.3139325,180334.859375,176718.53125,296801.59375,238084.984375,159092.390625,167098.078125,168411.734375,177504.515625,0.043701171875,0.989013671875,-0.25439453125,-2.136230230331421,-0.6713866591453552,0.6408690810203552,66.66667175292969,42143.0,1.0
35187.3194811,180679.984375,176807.578125,298190.875,238021.328125,158951.578125,167076.96875,168375.515625,177493.78125,0.04541015625,0.990966796875,-0.25634765625,-2.166747808456421,-0.4272460639476776,0.6103515028953552,66.66667175292969,42144.0,1.0
35187.3194874,178839.359375,175869.25,295601.21875,237484.53125,158642.9375,167058.203125,168319.015625,177496.1875,0.04736328125,0.99072265625,-0.256103515625,-2.258300542831421,-0.3967284858226776,0.5798339247703552,66.66667175292969,42145.0,1.0
35187.3213825,178228.34375,175641.984375,293850.53125,237483.546875,158738.609375,167078.40625,168345.75,177503.796875,0.044921875,0.991455078125,-0.254150390625,-2.319335699081421,-0.2746581733226776,0.5187987685203552,66.66667175292969,42146.0,1.0
35187.3326419,180019.703125,176568.6875,296264.4375,238031.609375,159063.421875,167097.09375,168401.71875,177497.984375,0.043701171875,0.991943359375,-0.255859375,-2.349853277206421,-0.0915527269244194,0.4882812201976776,66.66667175292969,42147.0,1.0
35187.3376517,180832.0625,176901.453125,298295.03125,238100.71875,159010.234375,167085.375,168388.3125,177495.390625,0.04248046875,0.99267578125,-0.2568359375,-2.319335699081421,0.1831054538488388,0.4577636420726776,66.66667175292969,42148.0,1.0
35187.3401382,179180.0,176044.046875,296191.28125,237566.953125,158694.265625,167075.546875,168338.234375,177502.625,0.040771484375,0.992431640625,-0.2587890625,-2.410888433456421,0.2441406100988388,0.3356933295726776,66.66667175292969,42149.0,1.0
35187.3451425,178137.515625,175598.265625,293867.25,237417.46875,158708.484375,167094.140625,168353.4375,177512.46875,0.0400390625,0.991943359375,-0.260009765625,-2.502441167831421,0.4272460639476776,0.3051757514476776,66.66667175292969,42150.0,1.0
35187.3476453,179686.578125,176420.625,295709.84375,237929.765625,159036.15625,167110.046875,168406.640625,177508.4375,0.03955078125,0.989990234375,-0.254638671875,-2.532958745956421,0.5798339247703552,0.3356933295726776,66.66667175292969,42151.0,1.0
35187.3501495,180905.640625,176964.578125,298236.84375,238127.546875,159060.203125,167093.6875,168396.171875,177496.109375,0.037353515625,0.988525390625,-0.255126953125,-2.563476324081421,0.6408690810203552,0.2441406100988388,66.66667175292969,42152.0,1.0
35187.3526688,179541.828125,176233.59375,296743.375,237641.609375,158747.546875,167082.875,168344.40625,177503.078125,0.036865234375,0.990478515625,-0.2548828125,-2.624511480331421,0.6713866591453552,0.1220703050494194,66.66667175292969,42153.0,1.0
35187.3801279,178130.171875,175588.875,293991.15625,237361.140625,158677.546875,167093.875,168339.40625,177512.734375,0.037109375,0.98828125,-0.257568359375,-2.593993902206421,0.6713866591453552,0.0610351525247097,66.66667175292969,42154.0,1.0
35187.3832157,179342.453125,176256.296875,295156.5,237820.15625,158999.140625,167118.1875,168400.828125,177517.390625,0.03515625,0.989013671875,-0.25390625,-2.655029058456421,0.7019042372703552,-0.0610351525247097,66.66667175292969,42155.0,1.0
35187.3832217,180891.15625,176977.359375,298022.53125,238136.03125,159097.9375,167104.78125,168404.578125,177502.1875,0.031982421875,0.98974609375,-0.25537109375,-2.624511480331421,0.7324218153953552,-0.0915527269244194,66.66667175292969,42156.0,1.0
35187.3851364,179889.171875,176406.40625,297221.34375,237714.75,158792.703125,167078.765625,168342.890625,177498.96875,0.031005859375,0.98974609375,-0.257080078125,-2.655029058456421,0.7019042372703552,0.0,66.66667175292969,42157.0,1.0
35187.3876375,178201.890625,175607.828125,294227.46875,237328.78125,158644.28125,167083.40625,168326.34375,177507.640625,0.031005859375,0.988037109375,-0.256591796875,-2.532958745956421,0.6713866591453552,0.0610351525247097,66.66667175292969,42158.0,1.0
35187.3901425,178990.90625,176074.796875,294631.84375,237700.796875,158930.65625,167109.78125,168385.0,177511.03125,0.03369140625,0.98779296875,-0.257080078125,-2.410888433456421,0.5798339247703552,0.0610351525247097,66.66667175292969,42159.0,1.0
35187.3926232,180778.59375,176934.546875,297656.9375,238128.4375,159108.75,167103.703125,168402.796875,177499.953125,0.0322265625,0.9873046875,-0.256591796875,-2.502441167831421,0.4882812201976776,0.0,66.66667175292969,42160.0,1.0
35187.3951458,180211.65625,176569.765625,297614.21875,237817.5625,158844.203125,167074.015625,168344.3125,177492.703125,0.03125,0.98681640625,-0.256591796875,-2.532958745956421,0.3967284858226776,0.0610351525247097,66.66667175292969,42161.0,1.0
35187.3976383,178368.453125,175678.015625,294587.15625,237362.9375,158634.453125,167081.0,168324.828125,177508.171875,0.029541015625,0.986083984375,-0.25634765625,-2.441406011581421,0.4272460639476776,0.0,66.66667175292969,42162.0,1.0
35187.4001026,178686.296875,175913.78125,294202.96875,237620.875,158868.421875,167110.328125,168379.71875,177517.296875,0.030029296875,0.988037109375,-0.254638671875,-2.380370855331421,0.2746581733226776,0.1220703050494194,66.66667175292969,42163.0,1.0
35187.4040939,180592.171875,176854.078125,297197.9375,238119.40625,159109.375,167110.671875,168405.921875,177498.34375,0.032958984375,0.98828125,-0.251220703125,-2.349853277206421,0.1831054538488388,0.1525878757238388,66.66667175292969,42164.0,1.0
35187.4113986,180500.09375,176722.109375,297923.65625,237927.265625,158902.765625,167085.828125,168361.75,177490.390625,0.032958984375,0.98779296875,-0.251708984375,-2.319335699081421,0.0610351525247097,0.1220703050494194,66.66667175292969,42165.0,1.0
35187.4139163,178601.09375,175775.109375,295039.03125,237411.5625,158638.46875,167083.671875,168329.296875,177504.421875,0.032958984375,0.988037109375,-0.253662109375,-2.349853277206421,0.1220703050494194,0.1831054538488388,66.66667175292969,42166.0,1.0
35187.4207126,178429.15625,175770.46875,293906.0625,237540.3125,158805.046875,167107.375,168369.0,177514.515625,0.032470703125,0.98779296875,-0.254150390625,-2.258300542831421,0.1525878757238388,0.2441406100988388,66.66667175292969,42167.0,1.0
35187.420719,180331.203125,176726.765625,296674.90625,238086.328125,159096.5,167113.625,168411.015625,177506.65625,0.032958984375,0.9873046875,-0.2578125,-2.197265386581421,0.0,0.3356933295726776,66.66667175292969,42168.0,1.0
35187.4226344,180719.234375,176829.84375,298120.59375,238026.0625,158956.046875,167084.125,168369.265625,177490.828125,0.033935546875,0.98681640625,-0.252685546875,-2.258300542831421,-0.0915527269244194,0.3356933295726776,66.66667175292969,42169.0,1.0
35187.4257349,178893.171875,175897.78125,295573.9375,237482.734375,158647.859375,167071.078125,168320.71875,177498.25,0.0341796875,0.986328125,-0.253662109375,-2.197265386581421,-0.1220703050494194,0.3967284858226776,66.66667175292969,42170.0,1.0
35187.42574,178244.890625,175658.703125,293767.5625,237465.21875,158744.0625,167097.984375,168357.90625,177516.484375,0.03271484375,0.9892578125,-0.2548828125,-2.166747808456421,-0.1831054538488388,0.5493163466453552,66.66667175292969,42171.0,1.0
35187.42764,180012.375,176573.0625,296123.78125,238007.46875,159067.0,167111.21875,168410.484375,177511.578125,0.032470703125,0.989013671875,-0.252685546875,-2.166747808456421,-0.0915527269244194,0.5493163466453552,66.66667175292969,42172.0,1.0
35187.4301392,180850.296875,176908.609375,298195.4375,238077.734375,159004.421875,167082.15625,168375.875,177487.875,0.033203125,0.9892578125,-0.2529296875,-2.136230230331421,-0.1220703050494194,0.6103515028953552,66.66667175292969,42173.0,1.0
35187.4332104,179208.34375,176048.421875,296142.03125,237541.296875,158679.59375,167062.40625,168319.109375,177490.5625,0.03466796875,0.98779296875,-0.252685546875,-2.136230230331421,-0.0915527269244194,0.6713866591453552,66.66667175292969,42174.0,1.0
35187.433216,178125.796875,175584.046875,293772.375,237387.96875,158696.765625,167088.234375,168342.796875,177512.015625,0.033935546875,0.987060546875,-0.25439453125,-2.105712652206421,-0.0915527269244194,0.6713866591453552,66.66667175292969,42175.0,1.0
35187.4463788,179650.640625,176398.015625,295564.09375,237903.3125,159030.609375,167108.890625,168397.515625,177505.84375,0.03515625,0.9873046875,-0.25537109375,-1.9531248807907104,-0.0610351525247097,0.5187987685203552,66.66667175292969,42176.0,1.0
35187.4513271,180903.40625,176953.5,298137.3125,238109.65625,159052.875,167084.03125,168380.53125,177484.65625,0.035888671875,0.989013671875,-0.25341796875,-2.014159917831421,0.0,0.6408690810203552,66.66667175292969,42177.0,1.0
35187.4513334,179571.6875,176233.328125,296719.96875,237631.515625,158738.078125,167069.375,168332.78125,177494.5,0.038330078125,0.98974609375,-0.25537109375,-2.044677495956421,0.0610351525247097,0.5798339247703552,66.66667175292969,42178.0,1.0
35187.4513359,178123.390625,175568.671875,293944.125,237343.890625,158659.9375,167077.234375,168331.703125,177506.5625,0.035400390625,0.9873046875,-0.257080078125,-1.9836424589157104,0.1220703050494194,0.5187987685203552,66.66667175292969,42179.0,1.0
35187.4544766,179295.953125,176218.21875,295042.875,237797.1875,158977.421875,167101.734375,168391.34375,177509.875,0.0361328125,0.987548828125,-0.255859375,-2.075195074081421,0.0915527269244194,0.6103515028953552,66.66667175292969,42180.0,1.0
35187.454483,180870.140625,176954.125,297943.03125,238126.90625,159082.46875,167086.0,168392.0625,177490.5625,0.0361328125,0.987060546875,-0.25830078125,-1.8920897245407104,0.03051757626235485,0.6103515028953552,66.66667175292969,42181.0,1.0
35187.4676369,179904.734375,176399.171875,297234.0625,237719.578125,158780.1875,167060.34375,168331.078125,177483.40625,0.035888671875,0.985595703125,-0.25830078125,-1.8615721464157104,0.0610351525247097,0.5187987685203552,66.66667175292969,42182.0,1.0
35187.4725771,178195.890625,175591.375,294247.21875,237332.078125,158630.34375,167072.5,168320.53125,177499.953125,0.0341796875,0.986328125,-0.256103515625,-1.8615721464157104,0.0,0.3967284858226776,66.66667175292969,42183.0,1.0
35187.4725834,178940.203125,176043.0625,294586.71875,237699.28125,158919.5625,167104.59375,168384.015625,177509.421875,0.032470703125,0.988525390625,-0.258544921875,-1.7700194120407104,-0.0610351525247097,0.4272460639476776,66.66667175292969,42184.0,1.0
35187.4725869,180746.671875,176919.25,297634.40625,238138.71875,159108.21875,167103.078125,168407.96875,177498.703125,0.033447265625,0.98779296875,-0.256591796875,-1.7700194120407104,-0.0915527269244194,0.3967284858226776,66.66667175292969,42185.0,1.0
35187.4751487,180231.328125,176581.109375,297687.6875,237838.9375,158851.4375,167078.140625,168354.15625,177493.515625,0.033447265625,0.988037109375,-0.255859375,-1.7700194120407104,0.0610351525247097,0.3051757514476776,66.66667175292969,42186.0,1.0
35187.4926378,178367.5625,175674.96875,294662.25,237367.3125,158632.21875,167077.6875,168326.171875,177503.96875,0.033203125,0.98974609375,-0.256103515625,-1.7089842557907104,0.1525878757238388,0.2746581733226776,66.66667175292969,42187.0,1.0
35187.4957098,178625.765625,175881.234375,294193.75,237602.0,158852.875,167099.765625,168372.484375,177507.1875,0.03271484375,0.98828125,-0.253662109375,-1.8615721464157104,0.0915527269244194,0.3967284858226776,66.66667175292969,42188.0,1.0
35187.4957153,180530.75,176817.6875,297162.34375,238098.296875,159093.734375,167094.59375,168399.484375,177492.0,0.0322265625,0.99072265625,-0.25439453125,-1.8310545682907104,0.03051757626235485,0.2746581733226776,66.66667175292969,42189.0,1.0
35187.5001477,180495.0,176716.65625,297973.4375,237917.796875,158893.015625,167068.21875,168351.015625,177480.1875,0.033447265625,0.991943359375,-0.2548828125,-1.8005369901657104,-0.03051757626235485,0.2746581733226776,66.66667175292969,42190.0,1.0
35187.5026428,178599.921875,175773.328125,295119.125,237395.125,158618.359375,167063.921875,168309.8125,177487.078125,0.03125,0.991943359375,-0.25537109375,-1.8920897245407104,-0.0610351525247097,0.3662109076976776,66.66667175292969,42191.0,1.0
35187.5057239,178374.53125,175743.453125,293902.46875,237504.8125,158777.40625,167091.8125,168352.546875,177498.25,0.033203125,0.99072265625,-0.25439453125,-1.9531248807907104,-0.1831054538488388,0.3356933295726776,66.66667175292969,42192.0,1.0
35187.5057293,180276.125,176705.125,296635.1875,238048.859375,159077.28125,167107.28125,168400.28125,177486.09375,0.033203125,0.991455078125,-0.25390625,-2.044677495956421,-0.1220703050494194,0.3051757514476776,66.66667175292969,42193.0,1.0
35187.5151713,180716.453125,176839.59375,298151.09375,238002.015625,158951.046875,167087.171875,168370.875,177477.6875,0.03515625,0.989990234375,-0.255859375,-2.044677495956421,-0.1831054538488388,0.3051757514476776,66.66667175292969,42194.0,1.0
35187.5201205,178907.484375,175915.296875,295643.78125,237457.96875,158645.625,167076.34375,168326.078125,177492.96875,0.03515625,0.989990234375,-0.25634765625,-2.075195074081421,-0.2746581733226776,0.4272460639476776,66.66667175292969,42195.0,1.0
35187.5282142,178205.640625,175640.28125,293753.4375,237419.890625,158726.359375,167093.515625,168350.84375,177503.171875,0.03466796875,0.989501953125,-0.255615234375,-2.075195074081421,-0.2441406100988388,0.3967284858226776,66.66667175292969,42196.0,1.0
35187.5282215,179948.890625,176537.21875,296038.3125,237957.046875,159046.53125,167101.921875,168391.34375,177482.96875,0.035888671875,0.989990234375,-0.253662109375,-2.075195074081421,-0.3356933295726776,0.5493163466453552,66.66667175292969,42197.0,1.0
35187.5342276,180852.625,176913.265625,298173.96875,238055.75,159007.90625,167087.171875,168373.109375,177475.546875,0.0341796875,0.990234375,-0.25732421875,-2.166747808456421,-0.3662109076976776,0.5493163466453552,66.66667175292969,42198.0,1.0
35187.5363678,179245.265625,176069.890625,296172.59375,237527.4375,158683.53125,167067.859375,168317.9375,177481.890625,0.03369140625,0.99072265625,-0.258056640625,-2.227782964706421,-0.3967284858226776,0.6713866591453552,66.66667175292969,42199.0,1.0
35187.5394739,178111.765625,175571.984375,293734.9375,237351.3125,158676.734375,167081.625,168332.25,177493.78125,0.03369140625,0.9912109375,-0.256591796875,-2.227782964706421,-0.3051757514476776,0.6713866591453552,66.66667175292969,42200.0,1.0
35187.5394786,179594.578125,176358.3125,295440.46875,237860.03125,159004.421875,167095.921875,168385.359375,177488.859375,0.03515625,0.9892578125,-0.25537109375,-2.258300542831421,-0.2441406100988388,0.7324218153953552,66.66667175292969,42201.0,1.0
35187.5463824,180892.765625,176941.328125,298053.46875,238088.828125,159043.390625,167080.453125,168375.515625,177475.453125,0.034912109375,0.9853515625,-0.25439453125,-2.288818120956421,-0.2441406100988388,0.7324218153953552,66.66667175292969,42202.0,1.0
35187.5494661,179588.3125,176226.53125,296688.9375,237607.09375,158715.546875,167051.765625,168312.84375,177472.5,0.03369140625,0.986083984375,-0.252685546875,-2.136230230331421,-0.2136230319738388,0.8239745497703552,66.66667175292969,42203.0,1.0
35187.5494721,178116.59375,175554.546875,293887.09375,237313.671875,158636.5,167069.28125,168319.46875,177492.796875,0.033935546875,0.985107421875,-0.2548828125,-2.227782964706421,-0.3051757514476776,0.7934569716453552,66.66667175292969,42204.0,1.0
35187.5576244,179243.921875,176185.484375,294905.1875,237758.46875,158956.40625,167098.4375,168385.53125,177499.765625,0.03515625,0.98681640625,-0.25537109375,-2.105712652206421,-0.2136230319738388,0.8544921278953552,66.66667175292969,42205.0,1.0
35187.5669765,180852.359375,176945.625,297831.46875,238104.109375,159078.71875,167088.5,168390.984375,177487.171875,0.035400390625,0.987548828125,-0.256591796875,-2.075195074081421,-0.2136230319738388,0.8850097060203552,66.66667175292969,42206.0,1.0
35187.5669827,179936.828125,176418.125,297201.59375,237707.328125,158786.265625,167062.9375,168334.65625,177484.65625,0.0361328125,0.9912109375,-0.259033203125,-2.014159917831421,-0.2746581733226776,0.8850097060203552,66.66667175292969,42207.0,1.0
35187.5694754,178208.328125,175598.265625,294199.3125,237310.0,158628.640625,167071.96875,168323.671875,177500.390625,0.035888671875,0.9931640625,-0.25732421875,-1.9226073026657104,-0.2746581733226776,0.8850097060203552,66.66667175292969,42208.0,1.0
35187.5694815,178903.8125,176022.765625,294455.8125,237664.234375,158909.203125,167103.265625,168382.765625,177507.453125,0.034423828125,0.994384765625,-0.257080078125,-1.8615721464157104,-0.1831054538488388,0.8239745497703552,66.66667175292969,42209.0,1.0
35187.5713891,180720.390625,176898.78125,297502.71875,238107.421875,159098.203125,167096.828125,168399.578125,177487.078125,0.03466796875,0.9921875,-0.25732421875,-2.014159917831421,-0.1831054538488388,0.8850097060203552,66.66667175292969,42210.0,1.0
35187.585126,180248.40625,176576.203125,297633.4375,237818.90625,158840.53125,167064.28125,168341.546875,177474.203125,0.036865234375,0.990966796875,-0.25439453125,-2.044677495956421,-0.0610351525247097,0.8544921278953552,66.66667175292969,42211.0,1.0
35187.5888209,178375.515625,175660.9375,294627.375,237348.984375,158615.40625,167067.578125,168316.25,177489.671875,0.04052734375,0.988525390625,-0.25439453125,-1.9531248807907104,0.0,0.7934569716453552,66.66667175292969,42212.0,1.0
35187.5888269,178590.71875,175848.78125,294095.59375,237581.4375,158839.015625,167094.9375,168367.65625,177501.375,0.040771484375,0.986083984375,-0.2568359375,-2.044677495956421,0.0915527269244194,0.7324218153953552,66.66667175292969,42213.0,1.0
35187.5888293,180509.75,176801.765625,297071.15625,238091.515625,159095.171875,167100.578125,168404.671875,177491.71875,0.041015625,0.98779296875,-0.257080078125,-2.044677495956421,0.2136230319738388,0.8239745497703552,66.66667175292969,42214.0,1.0
35187.5913927,180512.515625,176713.703125,297956.90625,237914.125,158897.03125,167067.5,168350.9375,177473.84375,0.0400390625,0.989013671875,-0.256591796875,-1.9226073026657104,0.3356933295726776,0.8850097060203552,66.66667175292969,42215.0,1.0
35187.5951233,178616.734375,175763.21875,295133.15625,237379.828125,158619.4375,167059.625,168310.25,177484.578125,0.040283203125,0.987548828125,-0.256591796875,-1.8310545682907104,0.3356933295726776,0.8239745497703552,66.66667175292969,42216.0,1.0
35187.6089194,178339.75,175706.890625,293858.65625,237467.71875,158772.3125,167086.8125,168353.609375,177500.671875,0.03857421875,0.987060546875,-0.256591796875,-1.8310545682907104,0.4577636420726776,0.8544921278953552,66.66667175292969,42217.0,1.0
35187.6112431,180221.859375,176660.421875,296556.4375,238006.21875,159072.984375,167098.703125,168403.0625,177495.484375,0.039306640625,0.9853515625,-0.253173828125,-1.7700194120407104,0.5187987685203552,0.8850097060203552,66.66667175292969,42218.0,1.0
35187.6176476,180707.25,176817.15625,298141.8125,237968.125,158952.5625,167071.96875,168365.15625,177481.171875,0.0380859375,0.98583984375,-0.2568359375,-1.8310545682907104,0.3967284858226776,0.8544921278953552,66.66667175292969,42219.0,1.0
35187.6201327,178916.15625,175903.59375,295688.03125,237425.96875,158646.25,167063.46875,168322.234375,177492.171875,0.0380859375,0.9833984375,-0.2587890625,-1.8615721464157104,0.5493163466453552,0.8850097060203552,66.66667175292969,42220.0,1.0
35187.6226363,178170.328125,175613.015625,293744.75,237380.984375,158726.09375,167094.40625,168361.125,177515.5,0.039306640625,0.98388671875,-0.259521484375,-1.8920897245407104,0.6103515028953552,0.9155272841453552,66.66667175292969,42221.0,1.0
35187.6276476,179896.328125,176507.984375,295987.0,237923.6875,159051.71875,167107.1875,168411.1875,177508.4375,0.04150390625,0.982421875,-0.259521484375,-1.8005369901657104,0.7934569716453552,0.9155272841453552,66.66667175292969,42222.0,1.0
35187.632577,180836.625,176903.15625,298176.84375,238029.640625,159010.9375,167085.28125,168384.015625,177486.1875,0.04052734375,0.982177734375,-0.2587890625,-1.6784666776657104,0.7629393935203552,0.8850097060203552,66.66667175292969,42223.0,1.0
35187.6325849,179259.203125,176076.859375,296240.5625,237509.46875,158688.625,167068.484375,168330.8125,177492.796875,0.040771484375,0.985107421875,-0.259033203125,-1.6784666776657104,0.7629393935203552,0.9765624403953552,66.66667175292969,42224.0,1.0
35187.6325887,178087.984375,175556.234375,293757.625,237323.140625,158674.234375,167073.75,168330.8125,177501.109375,0.037109375,0.989013671875,-0.2587890625,-1.6479490995407104,0.7934569716453552,1.0375975370407104,66.66667175292969,42225.0,1.0
35187.6376263,179540.03125,176326.390625,295398.625,237827.671875,158997.890625,167082.421875,168375.96875,177487.875,0.03515625,0.98974609375,-0.261474609375,-1.6174315214157104,0.7934569716453552,1.0681151151657104,66.66667175292969,42226.0,1.0
35187.6489173,180865.046875,176925.515625,298040.3125,238068.0,159040.09375,167062.84375,168364.25,177467.046875,0.035400390625,0.989990234375,-0.26171875,-1.7395018339157104,0.8850097060203552,0.9155272841453552,66.66667175292969,42227.0,1.0
35187.6513912,179600.65625,176239.046875,296747.84375,237610.59375,158727.4375,167047.46875,168313.734375,177472.40625,0.031005859375,0.99267578125,-0.259521484375,-1.7700194120407104,0.8239745497703552,0.7324218153953552,66.66667175292969,42228.0,1.0
35187.6613845,178105.859375,175555.890625,293916.15625,237323.0625,158646.15625,167070.0,168323.671875,177497.796875,0.029052734375,0.993896484375,-0.256103515625,-1.7395018339157104,0.7019042372703552,0.6408690810203552,66.66667175292969,42229.0,1.0
35187.663914,179192.328125,176163.3125,294850.625,237760.875,158951.046875,167088.5,168377.75,177493.953125,0.027587890625,0.99462890625,-0.260986328125,-1.8615721464157104,0.5493163466453552,0.4882812201976776,66.66667175292969,42230.0,1.0
35187.6663696,180828.921875,176931.40625,297790.875,238120.5625,159072.71875,167076.34375,168383.5625,177475.625,0.0283203125,0.9970703125,-0.25927734375,-2.014159917831421,0.4272460639476776,0.2746581733226776,66.66667175292969,42231.0,1.0
35187.6688992,179958.828125,176419.5625,297229.3125,237737.015625,158780.09375,167051.484375,168326.609375,177472.765625,0.02734375,0.9990234375,-0.2587890625,-2.105712652206421,0.3356933295726776,0.1220703050494194,66.66667175292969,42232.0,1.0
35187.6713909,178211.265625,175583.515625,294210.5625,237327.890625,158610.84375,167052.46875,168308.46875,177484.03125,0.029541015625,0.999755859375,-0.257568359375,-2.197265386581421,0.2746581733226776,0.0915527269244194,66.66667175292969,42233.0,1.0
35187.6744759,178856.703125,175978.953125,294372.84375,237657.796875,158880.140625,167076.53125,168364.703125,177489.671875,0.031982421875,0.99951171875,-0.2587890625,-2.380370855331421,0.1220703050494194,0.0,66.66667175292969,42234.0,1.0
35187.6744822,180693.203125,176867.65625,297416.25,238100.265625,159082.203125,167074.203125,168387.40625,177474.734375,0.032958984375,0.999267578125,-0.257568359375,-2.532958745956421,0.0610351525247097,-0.0610351525247097,66.66667175292969,42235.0,1.0
35187.6763804,180274.25,176576.109375,297620.90625,237814.890625,158839.109375,167052.65625,168337.96875,177469.46875,0.034912109375,0.998779296875,-0.25341796875,-2.593993902206421,0.0610351525247097,0.0610351525247097,66.66667175292969,42236.0,1.0
35187.6851276,178394.109375,175653.703125,294615.59375,237323.59375,158606.109375,167052.390625,168309.8125,177484.296875,0.03662109375,0.99853515625,-0.2568359375,-2.563476324081421,-0.0915527269244194,0.0915527269244194,66.66667175292969,42237.0,1.0
35187.6919709,178559.59375,175813.109375,293996.1875,237534.140625,158823.09375,167081.796875,168363.546875,177498.25,0.03662109375,0.99658203125,-0.259521484375,-2.716064214706421,-0.1220703050494194,0.1831054538488388,66.66667175292969,42238.0,1.0
35187.6919762,180475.140625,176761.890625,296940.34375,238042.15625,159080.234375,167081.984375,168395.546875,177482.78125,0.035400390625,0.99560546875,-0.255859375,-2.655029058456421,-0.1220703050494194,0.2746581733226776,66.66667175292969,42239.0,1.0
35187.6939157,180540.765625,176709.59375,297905.5,237889.1875,158897.21875,167058.109375,168351.375,177474.015625,0.034423828125,0.995361328125,-0.25341796875,-2.777099370956421,-0.0915527269244194,0.4577636420726776,66.66667175292969,42240.0,1.0
