Time,FZ,C3,CZ,C4,PZ,PO7,OZ,PO8,AccX,AccY,AccZ,Gyro1,Gyro2,Gyro3,Battery,Counter,Validation
21392.9972323,308353.875,308506.75,309160.5,308695.5,308609.65625,308776.59375,308884.5,283632.125,0.44140625,0.885009765625,0.199462890625,-1.8615721464157104,-0.2746581733226776,0.6103515028953552,80.0,42949.0,1.0
21393.0115703,308301.46875,308454.4375,309107.90625,308643.09375,308557.4375,308724.28125,308828.0625,282975.34375,0.440185546875,0.8857421875,0.19775390625,-1.8005369901657104,-0.1525878757238388,0.5798339247703552,80.0,42950.0,1.0
21393.0115771,308145.71875,308298.4375,308951.09375,308486.53125,308401.25,308568.0,308661.875,282319.96875,0.44287109375,0.886962890625,0.196533203125,-1.6784666776657104,-0.1831054538488388,0.6103515028953552,80.0,42951.0,1.0
21393.0140797,308187.46875,308340.0,308993.3125,308529.09375,308442.71875,308609.75,308713.375,282855.625,0.44384765625,0.8837890625,0.197509765625,-1.7700194120407104,-0.1525878757238388,0.6103515028953552,80.0,42952.0,1.0
21393.0140874,308359.75,308512.5625,309165.9375,308701.3125,308615.125,308781.84375,308890.65625,283568.1875,0.444091796875,0.885009765625,0.195068359375,-1.8005369901657104,-0.2441406100988388,0.6103515028953552,80.0,42953.0,1.0
21393.0159801,308346.875,308499.96875,309153.15625,308688.59375,308602.59375,308769.0625,308873.9375,283086.09375,0.4443359375,0.885009765625,0.1962890625,-1.8310545682907104,-0.1525878757238388,0.6713866591453552,80.0,42954.0,1.0
21393.0328209,308183.09375,308336.34375,308988.90625,308524.0,308438.96875,308605.375,308693.25,282292.625,0.4443359375,0.88525390625,0.197265625,-1.9226073026657104,-0.2746581733226776,0.6713866591453552,80.0,42955.0,1.0
21393.0328292,308184.15625,308337.78125,308990.1875,308525.625,308439.6875,308606.875,308704.96875,282635.84375,0.4453125,0.88671875,0.19677734375,-1.9226073026657104,-0.2136230319738388,0.5187987685203552,80.0,42956.0,1.0
21393.0396673,308358.34375,308512.28125,309165.5,308700.9375,308614.3125,308781.21875,308889.40625,283451.25,0.446044921875,0.884765625,0.1982421875,-1.9836424589157104,-0.1831054538488388,0.6103515028953552,80.0,42957.0,1.0
21393.0396754,308390.25,308543.75,309197.40625,308732.5,308646.40625,308812.6875,308917.9375,283170.875,0.44482421875,0.885009765625,0.197509765625,-1.9836424589157104,-0.1525878757238388,0.6408690810203552,80.0,42958.0,1.0
21393.0396795,308210.09375,308362.8125,309015.375,308550.90625,308465.8125,308632.09375,308727.125,282082.6875,0.44580078125,0.884033203125,0.196044921875,-1.9226073026657104,-0.2441406100988388,0.6408690810203552,80.0,42959.0,1.0
21393.0428194,308070.625,308223.40625,308876.1875,308411.71875,308325.875,308492.25,308593.28125,282096.8125,0.4462890625,0.8837890625,0.199951171875,-1.9531248807907104,-0.2136230319738388,0.5493163466453552,80.0,42960.0,1.0
21393.0428269,308172.375,308325.15625,308978.46875,308514.25,308428.0625,308594.46875,308701.75,283383.125,0.446044921875,0.882568359375,0.19580078125,-1.9531248807907104,-0.2136230319738388,0.4882812201976776,80.0,42961.0,1.0
21393.0447348,308242.1875,308394.53125,309048.71875,308583.8125,308498.15625,308664.375,308772.5625,283409.5,0.446044921875,0.8828125,0.1953125,-1.7700194120407104,-0.2441406100988388,0.4577636420726776,80.0,42962.0,1.0
21393.0559846,308096.375,308248.71875,308902.375,308437.1875,308352.0,308518.09375,308620.5625,282502.5625,0.446533203125,0.88427734375,0.197265625,-1.6479490995407104,-0.1525878757238388,0.4272460639476776,80.0,42963.0,1.0
21393.0653659,308017.6875,308170.59375,308824.0625,308359.125,308273.84375,308439.59375,308541.875,282417.6875,0.44580078125,0.885986328125,0.1962890625,-1.6479490995407104,-0.2746581733226776,0.3967284858226776,80.0,42964.0,1.0
21393.065374,308164.6875,308317.5625,308970.9375,308506.3125,308420.84375,308586.78125,308694.875,283289.0625,0.44482421875,0.887451171875,0.19775390625,-1.7700194120407104,-0.3051757514476776,0.3662109076976776,80.0,42965.0,1.0
21393.0678129,308272.78125,308425.75,309079.125,308614.5625,308528.90625,308694.9375,308803.3125,283463.75,0.4453125,0.8876953125,0.199951171875,-1.7700194120407104,-0.2746581733226776,0.2746581733226776,80.0,42966.0,1.0
21393.0678208,308151.28125,308304.5,308957.53125,308492.25,308407.15625,308573.34375,308674.3125,282589.625,0.4453125,0.88623046875,0.197998046875,-1.7395018339157104,-0.2136230319738388,0.3356933295726776,80.0,42967.0,1.0
21393.075979,308039.5,308192.65625,308844.96875,308380.3125,308295.3125,308461.59375,308557.875,282294.84375,0.445068359375,0.88623046875,0.197509765625,-1.7395018339157104,-0.1525878757238388,0.3356933295726776,80.0,42968.0,1.0
21393.0790791,308156.8125,308309.96875,308963.53125,308498.625,308413.0625,308578.8125,308686.09375,283109.0,0.4443359375,0.885498046875,0.197265625,-1.8615721464157104,-0.1525878757238388,0.3662109076976776,80.0,42969.0,1.0
21393.0790863,308297.0,308450.15625,309104.4375,308638.96875,308553.15625,308719.34375,308827.625,283498.71875,0.4443359375,0.886474609375,0.197998046875,-1.8005369901657104,-0.1525878757238388,0.3356933295726776,80.0,42970.0,1.0
21393.0809989,308209.46875,308362.53125,309016.09375,308550.90625,308465.53125,308631.84375,308732.6875,282720.15625,0.44140625,0.8857421875,0.196533203125,-1.7700194120407104,-0.03051757626235485,0.2746581733226776,80.0,42971.0,1.0
21393.095368,308070.875,308223.78125,308876.625,308411.96875,308326.875,308493.25,308584.53125,282228.0625,0.440673828125,0.884521484375,0.196533203125,-1.8310545682907104,-0.0915527269244194,0.3967284858226776,80.0,42972.0,1.0
21393.0953762,308153.9375,308306.84375,308960.40625,308495.5625,308409.46875,308576.03125,308680.8125,282927.0625,0.44140625,0.886474609375,0.1962890625,-1.6784666776657104,-0.2136230319738388,0.3662109076976776,80.0,42973.0,1.0
21393.0972319,308314.0625,308466.875,309120.53125,308655.875,308569.6875,308736.0625,308844.78125,283502.84375,0.441650390625,0.887939453125,0.197998046875,-1.7395018339157104,-0.1831054538488388,0.4272460639476776,80.0,42974.0,1.0
21393.0997409,308264.625,308417.25,309070.375,308605.71875,308520.34375,308686.625,308788.5625,282865.90625,0.44140625,0.8857421875,0.196533203125,-1.8615721464157104,-0.2136230319738388,0.4882812201976776,80.0,42975.0,1.0
21393.1034803,308108.875,308261.40625,308913.71875,308449.25,308364.5,308530.71875,308617.0625,282195.625,0.441162109375,0.884521484375,0.196044921875,-1.8005369901657104,-0.2136230319738388,0.4577636420726776,80.0,42976.0,1.0
21393.1122343,308149.21875,308302.375,308955.46875,308490.9375,308405.625,308571.75,308672.59375,282725.96875,0.44140625,0.88623046875,0.19677734375,-1.8920897245407104,-0.1831054538488388,0.4577636420726776,80.0,42977.0,1.0
21393.116571,308320.6875,308473.65625,309127.40625,308662.75,308576.75,308743.15625,308851.0625,283449.46875,0.441162109375,0.885009765625,0.19775390625,-1.9531248807907104,-0.2136230319738388,0.5187987685203552,80.0,42978.0,1.0
21393.1165782,308316.75,308469.8125,309123.3125,308658.65625,308572.8125,308739.125,308841.65625,282996.25,0.442138671875,0.885986328125,0.19921875,-1.8615721464157104,-0.2746581733226776,0.5187987685203552,80.0,42979.0,1.0
21393.1270871,308152.25,308305.3125,308957.71875,308492.71875,308408.59375,308574.53125,308655.625,282192.5625,0.442626953125,0.885986328125,0.19970703125,-1.9531248807907104,-0.1525878757238388,0.4882812201976776,80.0,42980.0,1.0
21393.1340688,308148.9375,308302.0,308954.6875,308489.9375,308405.0,308570.9375,308665.34375,282522.9375,0.443359375,0.885009765625,0.202392578125,-1.9226073026657104,-0.1525878757238388,0.4882812201976776,80.0,42981.0,1.0
21393.1340769,308323.28125,308476.15625,309129.8125,308665.1875,308579.15625,308745.46875,308853.46875,283345.3125,0.443115234375,0.885498046875,0.199951171875,-2.014159917831421,-0.0610351525247097,0.5798339247703552,80.0,42982.0,1.0
21393.1359825,308360.03125,308513.46875,309166.75,308702.0,308616.1875,308782.46875,308887.09375,283091.75,0.440673828125,0.8837890625,0.197998046875,-1.8615721464157104,-0.1831054538488388,0.5798339247703552,80.0,42983.0,1.0
21393.1390615,308177.90625,308331.15625,308983.75,308519.0,308433.96875,308599.65625,308695.84375,281969.40625,0.4404296875,0.88427734375,0.2001953125,-1.9226073026657104,-0.2441406100988388,0.6103515028953552,80.0,42984.0,1.0
21393.1390689,308027.96875,308180.875,308834.0625,308369.25,308283.6875,308449.71875,308551.8125,281973.0,0.442626953125,0.88623046875,0.199462890625,-1.9226073026657104,-0.1525878757238388,0.6103515028953552,80.0,42985.0,1.0
21393.1447334,308123.71875,308276.625,308930.0,308465.53125,308379.4375,308546.0,308653.1875,283269.65625,0.44384765625,0.886474609375,0.19921875,-1.8615721464157104,-0.0915527269244194,0.6103515028953552,80.0,42986.0,1.0
21393.151001,308196.875,308349.46875,309003.21875,308538.5625,308452.65625,308619.03125,308727.125,283335.09375,0.44580078125,0.885498046875,0.19775390625,-1.8310545682907104,-0.2441406100988388,0.6103515028953552,80.0,42987.0,1.0
21393.1578154,308054.96875,308207.6875,308860.96875,308396.0625,308310.6875,308476.96875,308577.28125,282424.40625,0.443115234375,0.88525390625,0.19677734375,-1.8310545682907104,-0.1831054538488388,0.6103515028953552,80.0,42988.0,1.0
21393.1578238,307969.5,308122.5625,308775.40625,308310.5,308225.28125,308391.5,308490.65625,282306.65625,0.443359375,0.88330078125,0.19677734375,-1.8310545682907104,-0.1525878757238388,0.5187987685203552,80.0,42989.0,1.0
21393.1597256,308108.875,308261.875,308915.6875,308450.5,308365.03125,308530.875,308639.0625,283167.46875,0.443115234375,0.883056640625,0.196044921875,-1.8920897245407104,-0.1831054538488388,0.4272460639476776,80.0,42990.0,1.0
21393.1717237,308222.15625,308375.0625,309028.78125,308563.875,308478.3125,308644.15625,308752.625,283372.375,0.4443359375,0.884765625,0.19775390625,-1.8615721464157104,-0.1831054538488388,0.4882812201976776,80.0,42991.0,1.0
21393.1717294,308105.125,308258.09375,308911.0625,308446.5,308361.1875,308527.40625,308625.65625,282506.9375,0.4462890625,0.885009765625,0.1982421875,-1.7700194120407104,-0.2136230319738388,0.3662109076976776,80.0,42992.0,1.0
21393.1734805,307989.25,308141.875,308794.5625,308329.90625,308245.15625,308411.53125,308503.1875,282172.90625,0.44482421875,0.884033203125,0.194580078125,-1.7700194120407104,-0.2136230319738388,0.3662109076976776,80.0,42993.0,1.0
21393.1759805,308103.53125,308256.3125,308909.625,308445.0625,308359.21875,308525.625,308631.84375,282965.15625,0.44384765625,0.883544921875,0.195068359375,-1.8005369901657104,-0.1220703050494194,0.3356933295726776,80.0,42994.0,1.0
21393.1853653,308243.8125,308396.78125,309050.34375,308585.34375,308499.78125,308665.8125,308774.25,283378.75,0.4462890625,0.884521484375,0.19384765625,-1.7700194120407104,-0.1525878757238388,0.3051757514476776,80.0,42995.0,1.0
21393.1853733,308156.8125,308310.21875,308962.90625,308498.0,308413.0625,308579.09375,308677.34375,282615.375,0.444091796875,0.884765625,0.195556640625,-1.8005369901657104,-0.1525878757238388,0.3356933295726776,80.0,42996.0,1.0
21393.1872438,308012.40625,308165.46875,308817.34375,308352.875,308268.03125,308434.5,308518.28125,282078.84375,0.44091796875,0.885986328125,0.198974609375,-1.8005369901657104,-0.1525878757238388,0.3051757514476776,80.0,42997.0,1.0
21393.1909824,308089.40625,308242.28125,308895.65625,308430.84375,308345.46875,308511.75,308614.5625,282747.53125,0.4404296875,0.886474609375,0.197509765625,-1.7395018339157104,-0.3051757514476776,0.3051757514476776,80.0,42998.0,1.0
21393.2053685,308250.96875,308404.03125,309057.5,308592.84375,308506.9375,308673.40625,308781.59375,283344.84375,0.44091796875,0.886474609375,0.196044921875,-1.7700194120407104,-0.2136230319738388,0.2746581733226776,80.0,42999.0,1.0
21393.2053771,308207.15625,308360.75,309013.6875,308548.9375,308463.375,308629.6875,308731.4375,282704.25,0.4423828125,0.886474609375,0.19775390625,-1.7089842557907104,-0.1525878757238388,0.3356933295726776,80.0,43000.0,1.0
21393.2078291,308002.03125,308155.375,308808.21875,308343.59375,308258.28125,308424.40625,308520.96875,281694.40625,0.44140625,0.88671875,0.197021484375,-1.8310545682907104,-0.03051757626235485,0.3051757514476776,80.0,43001.0,1.0
21393.2078365,307928.8125,308081.96875,308735.1875,308270.53125,308184.875,308351.09375,308454.53125,282321.15625,0.44091796875,0.888427734375,0.196044921875,-1.7700194120407104,-0.0915527269244194,0.3967284858226776,80.0,43002.0,1.0
21393.2097417,308065.625,308218.84375,308872.25,308407.6875,308321.59375,308487.96875,308596.25,283405.8125,0.43994140625,0.886474609375,0.1962890625,-1.7089842557907104,-0.0610351525247097,0.4272460639476776,80.0,43003.0,1.0
21393.2184899,308069.375,308222.53125,308876.34375,308411.4375,308325.625,308491.90625,308599.375,283019.6875,0.44091796875,0.88525390625,0.1982421875,-1.7089842557907104,-0.1831054538488388,0.5493163466453552,80.0,43004.0,1.0
21393.2228076,307904.5,308057.375,308710.78125,308245.9375,308160.75,308326.9375,308426.71875,282188.375,0.441650390625,0.88671875,0.2001953125,-1.8920897245407104,-0.1525878757238388,0.4577636420726776,80.0,43005.0,1.0
21393.2228136,307893.875,308046.65625,308700.3125,308235.40625,308150.09375,308316.21875,308420.46875,282480.28125,0.443603515625,0.88623046875,0.195068359375,-1.8005369901657104,-0.1525878757238388,0.5187987685203552,80.0,43006.0,1.0
21393.2284542,308065.71875,308218.40625,308872.34375,308407.78125,308321.6875,308488.34375,308596.6875,283316.6875,0.4423828125,0.88720703125,0.19482421875,-1.8920897245407104,-0.0610351525247097,0.5798339247703552,80.0,43007.0,1.0
21393.2372547,308115.15625,308268.125,308921.875,308457.3125,308371.3125,308537.78125,308645.15625,283136.09375,0.443603515625,0.886962890625,0.197998046875,-1.8920897245407104,-0.03051757626235485,0.6713866591453552,80.0,43008.0,1.0
21393.2403662,307958.5,308111.5625,308764.875,308300.03125,308215.0,308381.5,308478.40625,282236.90625,0.443115234375,0.88671875,0.200439453125,-1.9531248807907104,-0.0915527269244194,0.7019042372703552,80.0,43009.0,1.0
21393.2403741,307902.8125,308055.96875,308709.25,308244.25,308158.96875,308325.53125,308424.9375,282298.4375,0.445556640625,0.886474609375,0.19873046875,-1.9226073026657104,-0.1220703050494194,0.7629393935203552,80.0,43010.0,1.0
21393.2459945,308062.125,308215.1875,308868.75,308403.9375,308318.28125,308484.5625,308592.65625,283171.21875,0.4462890625,0.88427734375,0.198974609375,-1.9226073026657104,-0.2136230319738388,0.6713866591453552,80.0,43011.0,1.0
21393.2503632,308156.8125,308309.34375,308963.15625,308498.6875,308412.59375,308579.09375,308687.09375,283236.21875,0.445068359375,0.884765625,0.196044921875,-1.8005369901657104,-0.1220703050494194,0.6103515028953552,80.0,43012.0,1.0
21393.2503703,308018.9375,308171.65625,308824.5,308360.21875,308274.65625,308440.9375,308537.6875,282335.4375,0.4443359375,0.885498046875,0.197021484375,-1.9226073026657104,-0.0915527269244194,0.5798339247703552,80.0,43013.0,1.0
21393.2522408,307918.90625,308072.0625,308724.71875,308260.15625,308174.78125,308341.15625,308434.34375,282139.46875,0.44384765625,0.88330078125,0.198974609375,-1.8920897245407104,-0.1525878757238388,0.5493163466453552,80.0,43014.0,1.0
21393.2659939,308051.9375,308204.71875,308858.3125,308393.5625,308307.71875,308474.21875,308581.125,282963.625,0.443603515625,0.8828125,0.197265625,-1.9226073026657104,-0.1220703050494194,0.5493163466453552,80.0,43015.0,1.0
21393.2690599,308199.8125,308352.6875,309006.71875,308541.78125,308456.0625,308622.25,308730.90625,283332.25,0.445068359375,0.885498046875,0.196044921875,-1.8920897245407104,-0.1220703050494194,0.4272460639476776,80.0,43016.0,1.0
21393.2690672,308105.9375,308259.0,308912.5625,308447.375,308362.28125,308528.28125,308628.6875,282531.53125,0.4443359375,0.88427734375,0.1982421875,-1.9226073026657104,-0.1831054538488388,0.4577636420726776,80.0,43017.0,1.0
21393.2709787,307869.53125,308022.34375,308675.46875,308210.53125,308125.6875,308291.375,308388.03125,281562.34375,0.443115234375,0.877685546875,0.196533203125,-1.8920897245407104,-0.1525878757238388,0.4882812201976776,80.0,43018.0,1.0
21393.2772335,307804.8125,307957.96875,308611.25,308146.625,308060.59375,308226.90625,308331.0625,282206.4375,0.440185546875,0.873046875,0.197998046875,-1.7089842557907104,-0.2441406100988388,0.4577636420726776,80.0,43019.0,1.0
21393.2840793,307965.5625,308118.625,308772.03125,308307.375,308221.375,308387.125,308495.9375,283200.71875,0.4453125,0.890380859375,0.198486328125,-1.7395018339157104,-0.2746581733226776,0.3967284858226776,80.0,43020.0,1.0
21393.2840872,307942.6875,308095.75,308749.125,308284.21875,308198.46875,308364.875,308469.5625,282716.84375,0.45068359375,0.896484375,0.195556640625,-1.8005369901657104,-0.1220703050494194,0.3967284858226776,80.0,43021.0,1.0
21393.2859891,307725.5,307878.21875,308531.25,308066.59375,307981.21875,308147.59375,308236.46875,281798.5625,0.439453125,0.879638671875,0.197998046875,-1.8920897245407104,0.03051757626235485,0.4882812201976776,80.0,43022.0,1.0
21393.2947357,307693.25,307845.59375,308498.96875,308034.3125,307948.84375,308114.78125,308213.21875,282049.875,0.445556640625,0.90185546875,0.201904296875,-1.9836424589157104,-0.1220703050494194,0.5493163466453552,80.0,43023.0,1.0
21393.2990681,307890.8125,308043.53125,308697.1875,308232.625,308146.625,308312.75,308420.46875,283239.875,0.44384765625,0.881591796875,0.19287109375,-1.9531248807907104,-0.0915527269244194,0.5493163466453552,80.0,43024.0,1.0
21393.2990765,307966.5625,308119.34375,308773.09375,308308.625,308222.34375,308388.65625,308496.65625,283190.90625,0.440673828125,0.8876953125,0.203369140625,-1.8615721464157104,0.03051757626235485,0.3662109076976776,80.0,43025.0,1.0
21393.3072345,307766.0,307918.8125,308572.5625,308108.09375,308022.0625,308188.09375,308294.84375,282272.9375,0.442626953125,0.88427734375,0.1982421875,-1.6784666776657104,-0.3662109076976776,0.1525878757238388,80.0,43026.0,1.0
21393.3140604,307701.90625,307854.71875,308508.53125,308043.71875,307957.6875,308124.09375,308230.9375,282342.6875,0.44287109375,0.88232421875,0.19140625,-1.4648436307907104,-0.3662109076976776,0.0,80.0,43027.0,1.0
21393.3140684,307892.0,308044.5,308698.4375,308233.4375,308147.4375,308314.0,308422.625,283180.15625,0.43505859375,0.87841796875,0.198974609375,-1.4038084745407104,-0.3662109076976776,0.0610351525247097,80.0,43028.0,1.0
21393.3165596,307997.21875,308149.9375,308803.59375,308339.125,308252.9375,308419.5625,308527.5,283220.75,0.43896484375,0.88232421875,0.1953125,-1.2512205839157104,-0.4577636420726776,0.0610351525247097,80.0,43029.0,1.0
21393.3165667,307795.0625,307947.59375,308600.96875,308136.59375,308050.9375,308217.34375,308318.28125,282194.4375,0.443603515625,0.889892578125,0.194580078125,-1.4343260526657104,-0.3662109076976776,0.1220703050494194,80.0,43030.0,1.0
21393.3272612,307680.375,307832.875,308486.0,308021.71875,307935.96875,308102.375,308201.15625,282028.34375,0.442626953125,0.893310546875,0.197265625,-1.6784666776657104,-0.2746581733226776,0.2441406100988388,80.0,43031.0,1.0
21393.3553678,307858.71875,308011.34375,308664.90625,308200.53125,308114.6875,308280.71875,308388.90625,282912.21875,0.44775390625,0.89990234375,0.194580078125,-2.075195074081421,-0.0610351525247097,0.4882812201976776,80.0,43032.0,1.0
21393.3553769,308035.65625,308188.28125,308842.28125,308377.5625,308291.46875,308458.03125,308566.65625,283320.09375,0.44384765625,0.893310546875,0.19873046875,-2.258300542831421,0.1831054538488388,0.6408690810203552,80.0,43033.0,1.0
21393.3572322,307886.0,308038.34375,308691.8125,308227.4375,308141.53125,308307.8125,308413.3125,282443.09375,0.4423828125,0.889892578125,0.201904296875,-2.441406011581421,0.03051757626235485,0.7934569716453552,80.0,43034.0,1.0
21393.3597383,307738.65625,307891.1875,308544.65625,308079.84375,307994.53125,308160.5625,308262.5,282090.28125,0.443359375,0.885986328125,0.197998046875,-2.410888433456421,0.0610351525247097,0.9155272841453552,80.0,43035.0,1.0
21393.3622542,307870.8125,308023.6875,308677.53125,308212.6875,308126.9375,308293.34375,308401.15625,282858.84375,0.440673828125,0.881591796875,0.197265625,-2.227782964706421,-0.0915527269244194,0.9155272841453552,80.0,43036.0,1.0
21393.3647398,308071.34375,308224.03125,308878.25,308412.96875,308327.40625,308493.53125,308602.5,283415.9375,0.438232421875,0.87890625,0.19921875,-1.9836424589157104,-0.2746581733226776,0.8850097060203552,80.0,43037.0,1.0
21393.3672307,307952.0625,308104.875,308758.59375,308293.59375,308207.875,308374.34375,308478.59375,282563.4375,0.443359375,0.877685546875,0.197265625,-1.7395018339157104,-0.4272460639476776,1.0070799589157104,80.0,43038.0,1.0
21393.3697285,307733.5625,307886.25,308539.125,308074.46875,307989.34375,308155.8125,308251.40625,281705.5625,0.444580078125,0.87939453125,0.19677734375,-1.5563963651657104,-0.3967284858226776,0.8850097060203552,80.0,43039.0,1.0
21393.3722334,307727.125,307879.5625,308533.03125,308068.375,307982.8125,308149.3125,308252.75,282294.3125,0.447265625,0.885498046875,0.198486328125,-1.6174315214157104,-0.3662109076976776,0.8239745497703552,80.0,43040.0,1.0
21393.3753632,307923.71875,308076.25,308730.0,308265.25,308179.4375,308345.8125,308454.09375,283350.9375,0.451904296875,0.892822265625,0.194091796875,-1.7089842557907104,-0.3051757514476776,0.6713866591453552,80.0,43041.0,1.0
21393.3753709,307870.34375,308022.875,308676.875,308212.0625,308125.875,308292.53125,308400.09375,282765.125,0.45068359375,0.89404296875,0.19384765625,-1.9836424589157104,-0.0915527269244194,0.5798339247703552,80.0,43042.0,1.0
21393.3772264,307668.46875,307820.5625,308474.46875,308009.46875,307923.8125,308090.125,308194.0,282024.3125,0.4482421875,0.891357421875,0.1982421875,-2.136230230331421,0.1525878757238388,0.3967284858226776,80.0,43043.0,1.0
21393.3803647,307698.15625,307850.59375,308504.4375,308039.40625,307953.3125,308119.96875,308226.90625,282463.5625,0.445556640625,0.887939453125,0.201904296875,-2.197265386581421,0.2136230319738388,0.1831054538488388,80.0,43044.0,1.0
21393.3803728,307933.65625,308086.28125,308740.09375,308275.09375,308189.0,308355.84375,308464.5625,283334.84375,0.443359375,0.88134765625,0.202392578125,-2.136230230331421,0.1831054538488388,0.0610351525247097,80.0,43045.0,1.0
21393.3834884,307938.65625,308091.28125,308745.46875,308280.28125,308194.28125,308360.9375,308468.9375,282938.9375,0.439208984375,0.879638671875,0.202880859375,-1.9836424589157104,0.03051757626235485,-0.0610351525247097,80.0,43046.0,1.0
21393.4028125,307724.34375,307876.875,308530.53125,308065.625,307979.96875,308146.34375,308247.375,282036.90625,0.439697265625,0.880126953125,0.202392578125,-1.7089842557907104,-0.1525878757238388,0.03051757626235485,80.0,43047.0,1.0
21393.4028205,307692.25,307845.0625,308498.53125,308033.78125,307948.03125,308114.4375,308217.6875,282233.0625,0.439208984375,0.88330078125,0.200927734375,-1.3732908964157104,-0.4272460639476776,0.03051757626235485,80.0,43048.0,1.0
21393.4053648,307919.6875,308072.59375,308726.40625,308261.5,308175.6875,308341.96875,308450.4375,283157.8125,0.44091796875,0.886474609375,0.19921875,-1.3732908964157104,-0.4882812201976776,0.3051757514476776,80.0,43049.0,1.0
21393.4053729,307987.28125,308140.0,308793.9375,308328.84375,308242.90625,308409.46875,308517.65625,283037.28125,0.444091796875,0.88916015625,0.196044921875,-1.3122557401657104,-0.4882812201976776,0.5187987685203552,80.0,43050.0,1.0
21393.4072313,307781.84375,307934.71875,308587.75,308122.84375,308037.28125,308203.65625,308304.34375,282102.4375,0.447265625,0.89013671875,0.193359375,-1.4953612089157104,-0.3967284858226776,0.6103515028953552,80.0,43051.0,1.0
21393.4097489,307699.03125,307851.84375,308505.125,308040.21875,307954.65625,308120.875,308221.71875,282109.96875,0.4482421875,0.890625,0.191650390625,-1.8005369901657104,-0.2441406100988388,0.5798339247703552,80.0,43052.0,1.0
21393.4122414,307905.40625,308058.1875,308711.9375,308247.03125,308160.9375,308327.5,308435.5,283057.0625,0.447021484375,0.890625,0.19482421875,-2.105712652206421,-0.03051757626235485,0.5187987685203552,80.0,43053.0,1.0
21393.4159795,308032.0,308184.4375,308838.4375,308373.875,308287.53125,308454.34375,308562.625,283209.03125,0.4453125,0.88720703125,0.19677734375,-2.197265386581421,-0.03051757626235485,0.3662109076976776,80.0,43054.0,1.0
21393.4253649,307849.96875,308002.40625,308656.25,308191.78125,308105.5,308272.0625,308374.34375,282255.96875,0.440673828125,0.8837890625,0.1982421875,-2.258300542831421,0.03051757626235485,0.4272460639476776,80.0,43055.0,1.0
21393.4253734,307721.3125,307874.0,308527.65625,308063.03125,307976.9375,308143.65625,308242.0,282021.1875,0.437744140625,0.882080078125,0.198974609375,-2.288818120956421,0.0,0.4272460639476776,80.0,43056.0,1.0
21393.4272316,307892.78125,308045.6875,308699.59375,308234.875,308148.3125,308314.875,308422.78125,282889.875,0.438232421875,0.882568359375,0.2001953125,-1.9531248807907104,0.03051757626235485,0.3967284858226776,80.0,43057.0,1.0
21393.4409756,308070.0,308222.625,308876.625,308412.15625,308325.6875,308491.8125,308600.8125,283283.15625,0.438232421875,0.88330078125,0.201416015625,-1.7089842557907104,-0.1831054538488388,0.4577636420726776,80.0,43058.0,1.0
21393.4465034,307919.96875,308072.84375,308726.40625,308262.21875,308176.21875,308342.59375,308444.875,282388.1875,0.439453125,0.885986328125,0.20166015625,-1.4953612089157104,-0.2441406100988388,0.5187987685203552,80.0,43059.0,1.0
21393.4465114,307757.0625,307909.78125,308563.0,308098.34375,308013.03125,308179.34375,308273.125,281954.65625,0.441162109375,0.8876953125,0.1943359375,-1.4953612089157104,-0.3051757514476776,0.5493163466453552,80.0,43060.0,1.0
21393.4465152,307883.84375,308036.5625,308690.65625,308226.0,308139.90625,308306.03125,308412.34375,282707.1875,0.444091796875,0.8896484375,0.193115234375,-1.4648436307907104,-0.2136230319738388,0.5187987685203552,80.0,43061.0,1.0
21393.4465191,308090.75,308243.28125,308897.46875,308433.0,308346.625,308513.0,308621.8125,283304.8125,0.44482421875,0.89013671875,0.19189453125,-1.6479490995407104,-0.2441406100988388,0.5493163466453552,80.0,43062.0,1.0
21393.448482,307984.53125,308137.0625,308790.34375,308326.15625,308240.21875,308406.78125,308509.96875,282515.34375,0.444580078125,0.88720703125,0.193115234375,-1.7395018339157104,-0.2136230319738388,0.4577636420726776,80.0,43063.0,1.0
21393.4597268,307799.90625,307952.78125,308604.90625,308140.625,308055.59375,308221.53125,308311.125,281914.875,0.443115234375,0.885009765625,0.1953125,-2.014159917831421,-0.0915527269244194,0.3356933295726776,80.0,43064.0,1.0
21393.464078,307884.21875,308036.8125,308690.40625,308225.84375,308139.65625,308305.75,308409.46875,282525.71875,0.44140625,0.883544921875,0.195068359375,-2.044677495956421,0.03051757626235485,0.3662109076976776,80.0,43065.0,1.0
21393.464086,308107.28125,308260.0,308914.0,308449.25,308362.8125,308529.09375,308637.8125,283243.65625,0.441162109375,0.883544921875,0.196044921875,-2.105712652206421,-0.03051757626235485,0.5493163466453552,80.0,43066.0,1.0
21393.4778158,308044.15625,308196.875,308850.4375,308385.5,308300.21875,308466.25,308568.34375,282589.4375,0.441650390625,0.8828125,0.199462890625,-2.105712652206421,-0.03051757626235485,0.7019042372703552,80.0,43067.0,1.0
21393.4778246,307867.65625,308020.46875,308672.6875,308208.125,308123.375,308289.65625,308376.21875,281957.53125,0.441650390625,0.884033203125,0.202392578125,-2.014159917831421,-0.2441406100988388,0.7629393935203552,80.0,43068.0,1.0
21393.4803629,307927.5625,308080.46875,308733.5625,308269.03125,308183.28125,308349.84375,308451.59375,282537.96875,0.443359375,0.88330078125,0.198974609375,-1.9836424589157104,-0.2441406100988388,0.9460448622703552,80.0,43069.0,1.0
21393.4803701,308127.3125,308280.1875,308933.5625,308469.5625,308383.0,308549.40625,308658.125,283262.34375,0.44384765625,0.88330078125,0.19921875,-1.8310545682907104,-0.3051757514476776,0.8544921278953552,80.0,43070.0,1.0
21393.4865631,308087.59375,308240.3125,308893.625,308429.15625,308343.125,308509.875,308612.4375,282669.125,0.446533203125,0.882080078125,0.197998046875,-1.8310545682907104,-0.2441406100988388,0.7324218153953552,80.0,43071.0,1.0
21393.4865711,307883.3125,308036.03125,308689.0625,308224.40625,308139.09375,308305.3125,308398.3125,281704.5,0.447509765625,0.8818359375,0.196044921875,-1.8615721464157104,-0.1525878757238388,0.7934569716453552,80.0,43072.0,1.0
21393.4997285,307808.03125,307961.09375,308614.46875,308150.28125,308064.4375,308230.5625,308332.75,282138.9375,0.447021484375,0.884521484375,0.196533203125,-1.9226073026657104,-0.2136230319738388,0.7324218153953552,80.0,43073.0,1.0
21393.5028114,307953.5,308106.46875,308760.21875,308295.65625,308209.65625,308376.03125,308483.875,283264.84375,0.44873046875,0.882568359375,0.19775390625,-1.9531248807907104,-0.1525878757238388,0.6103515028953552,80.0,43074.0,1.0
21393.5028194,307952.5,308104.875,308758.53125,308294.40625,308208.3125,308374.59375,308481.625,282866.96875,0.44775390625,0.883544921875,0.196533203125,-1.9836424589157104,0.0,0.5187987685203552,80.0,43075.0,1.0
21393.5115701,307783.0,307935.875,308588.75,308124.4375,308039.0625,308204.5625,308304.875,282054.96875,0.44775390625,0.885009765625,0.197021484375,-1.8920897245407104,-0.0610351525247097,0.3662109076976776,80.0,43076.0,1.0
21393.511578,307769.15625,307921.84375,308575.5,308111.03125,308025.03125,308191.15625,308295.3125,282347.78125,0.446044921875,0.883544921875,0.19921875,-1.8310545682907104,-0.0610351525247097,0.2746581733226776,80.0,43077.0,1.0
21393.5140666,307952.875,308105.40625,308759.3125,308295.21875,308209.03125,308375.21875,308483.875,283194.65625,0.44384765625,0.885498046875,0.19921875,-1.7395018339157104,-0.0915527269244194,0.1220703050494194,80.0,43078.0,1.0
21393.514074,307997.65625,308150.1875,308804.125,308339.75,308253.71875,308419.9375,308527.59375,282970.0625,0.443115234375,0.885986328125,0.199462890625,-1.5869139432907104,-0.0610351525247097,0.0610351525247097,80.0,43079.0,1.0
21393.5334649,307825.8125,307978.34375,308631.84375,308167.4375,308081.875,308247.90625,308344.9375,282076.875,0.443603515625,0.88623046875,0.1982421875,-1.4343260526657104,-0.1525878757238388,0.03051757626235485,80.0,43080.0,1.0
21393.5334736,307767.34375,307919.6875,308573.28125,308108.8125,308023.40625,308189.25,308289.03125,282152.53125,0.441650390625,0.887451171875,0.197509765625,-1.3427733182907104,-0.2136230319738388,-0.1220703050494194,80.0,43081.0,1.0
21393.5334776,307938.65625,308091.28125,308745.375,308280.5625,308194.4375,308360.46875,308469.28125,283014.6875,0.440673828125,0.88916015625,0.19677734375,-1.4343260526657104,-0.1831054538488388,-0.1831054538488388,80.0,43082.0,1.0
21393.5365603,308023.15625,308176.3125,308829.6875,308365.5,308279.03125,308445.3125,308553.15625,283002.15625,0.44189453125,0.890625,0.19775390625,-1.4343260526657104,-0.2441406100988388,-0.1831054538488388,80.0,43083.0,1.0
21393.5365678,307871.0625,308023.6875,308676.53125,308212.5,308126.9375,308293.0625,308385.4375,282092.34375,0.440185546875,0.888916015625,0.19580078125,-1.5869139432907104,-0.0610351525247097,0.03051757626235485,80.0,43084.0,1.0
21393.5384368,307780.3125,307932.9375,308585.78125,308121.5,308035.84375,308202.21875,308292.53125,281975.40625,0.4384765625,0.887939453125,0.197265625,-1.6784666776657104,-0.2136230319738388,0.1525878757238388,80.0,43085.0,1.0
21393.5472515,307930.875,308083.40625,308737.40625,308272.875,308186.59375,308353.0625,308460.0,282842.03125,0.438720703125,0.889892578125,0.196533203125,-1.7700194120407104,-0.2136230319738388,0.3356933295726776,80.0,43086.0,1.0
21393.5503634,308056.5,308209.1875,308862.84375,308398.5625,308312.46875,308478.9375,308587.125,283071.34375,0.439697265625,0.888916015625,0.19677734375,-1.8920897245407104,-0.2136230319738388,0.4272460639476776,80.0,43087.0,1.0
21393.5503713,307931.40625,308084.125,308736.96875,308272.6875,308187.375,308353.59375,308446.9375,282213.0625,0.438232421875,0.88720703125,0.198486328125,-2.014159917831421,-0.1525878757238388,0.6713866591453552,80.0,43088.0,1.0
21393.558481,307807.3125,307959.65625,308612.4375,308148.125,308063.03125,308229.59375,308314.0625,281900.40625,0.437744140625,0.885986328125,0.19921875,-1.9836424589157104,-0.1525878757238388,0.7019042372703552,80.0,43089.0,1.0
21393.5615699,307925.78125,308078.3125,308732.40625,308267.75,308181.65625,308348.0625,308452.9375,282689.5,0.439453125,0.884765625,0.200439453125,-2.105712652206421,-0.1525878757238388,0.7934569716453552,80.0,43090.0,1.0
21393.5615776,308077.15625,308230.125,308884.21875,308419.5,308333.3125,308499.59375,308607.78125,283108.375,0.44091796875,0.884521484375,0.200439453125,-2.105712652206421,-0.1525878757238388,0.8850097060203552,80.0,43091.0,1.0
21393.5634871,307981.125,308134.375,308787.40625,308322.84375,308237.375,308403.75,308502.375,282259.28125,0.442626953125,0.8857421875,0.197265625,-2.014159917831421,-0.2441406100988388,0.9460448622703552,80.0,43092.0,1.0
21393.577224,307773.34375,307925.96875,308578.90625,308114.625,308029.21875,308195.625,308292.625,281427.34375,0.4423828125,0.883544921875,0.200927734375,-1.9836424589157104,-0.2136230319738388,0.9460448622703552,80.0,43093.0,1.0
21393.5803617,307746.78125,307899.59375,308552.875,308088.6875,308002.6875,308169.25,308273.3125,282338.125,0.44384765625,0.883056640625,0.200927734375,-2.044677495956421,-0.2136230319738388,0.8850097060203552,80.0,43094.0,1.0
21393.5803695,307890.28125,308043.09375,308696.75,308232.34375,308146.0,308312.65625,308421.09375,283230.21875,0.444580078125,0.8837890625,0.19775390625,-2.044677495956421,-0.2441406100988388,0.8239745497703552,80.0,43095.0,1.0
21393.582231,307842.90625,307995.96875,308649.09375,308184.96875,308098.96875,308265.25,308371.65625,282606.09375,0.445556640625,0.8837890625,0.19921875,-2.044677495956421,-0.1525878757238388,0.7934569716453552,80.0,43096.0,1.0
21393.5859867,307681.875,307834.78125,308487.4375,308023.15625,307937.6875,308104.15625,308203.84375,281932.75,0.443603515625,0.882080078125,0.198974609375,-1.9226073026657104,-0.1831054538488388,0.5493163466453552,80.0,43097.0,1.0
21393.5997285,307716.75,307869.46875,308523.1875,308058.09375,307972.4375,308139.03125,308244.78125,282429.3125,0.44482421875,0.8798828125,0.19921875,-1.9226073026657104,-0.0915527269244194,0.4882812201976776,80.0,43098.0,1.0
21393.6028069,307895.125,308047.65625,308701.75,308236.75,308150.65625,308317.375,308426.0,283152.625,0.446044921875,0.88134765625,0.20166015625,-1.8920897245407104,-0.1831054538488388,0.4882812201976776,80.0,43099.0,1.0
21393.6028144,307886.71875,308039.5,308693.15625,308228.25,308142.59375,308309.0625,308414.75,282684.59375,0.443603515625,0.8818359375,0.200927734375,-1.7089842557907104,-0.2746581733226776,0.3051757514476776,80.0,43100.0,1.0
21393.6047258,307717.375,307869.71875,308522.75,308058.46875,307972.90625,308139.375,308231.71875,281874.46875,0.444580078125,0.88330078125,0.199951171875,-1.6174315214157104,-0.2136230319738388,0.2746581733226776,80.0,43101.0,1.0
21393.6072286,307709.15625,307861.6875,308514.4375,308050.59375,307964.5,308130.78125,308230.46875,282176.46875,0.443359375,0.8837890625,0.20068359375,-1.6784666776657104,-0.2136230319738388,0.3356933295726776,80.0,43102.0,1.0
21393.615974,307888.15625,308040.65625,308694.15625,308229.9375,308143.40625,308310.21875,308418.5,283000.0,0.443115234375,0.885498046875,0.19970703125,-1.6479490995407104,-0.2136230319738388,0.3356933295726776,80.0,43103.0,1.0
21393.6190633,307927.3125,308079.90625,308733.3125,308269.03125,308182.90625,308349.40625,308455.15625,282751.375,0.443359375,0.8857421875,0.198974609375,-1.7700194120407104,-0.2136230319738388,0.4272460639476776,80.0,43104.0,1.0
21393.6190718,307763.0625,307915.6875,308568.15625,308103.6875,308018.59375,308184.96875,308271.25,281875.8125,0.44482421875,0.884765625,0.197265625,-1.8005369901657104,-0.2441406100988388,0.3356933295726776,80.0,43105.0,1.0
21393.6272247,307712.375,307865.15625,308518.1875,308053.46875,307967.96875,308134.5625,308225.5625,281983.71875,0.4443359375,0.88330078125,0.198486328125,-1.8310545682907104,-0.2441406100988388,0.5187987685203552,80.0,43106.0,1.0
21393.6315625,307880.28125,308033.25,308686.625,308222.34375,308135.875,308302.46875,308409.84375,282863.9375,0.4443359375,0.884521484375,0.197265625,-1.7395018339157104,-0.1220703050494194,0.5187987685203552,80.0,43107.0,1.0
21393.6315693,307960.21875,308113.34375,308766.5625,308302.0,308216.0,308382.65625,308489.3125,282844.25,0.44384765625,0.88427734375,0.19873046875,-1.7089842557907104,-0.2136230319738388,0.4882812201976776,80.0,43108.0,1.0
21393.6347271,307798.8125,307951.875,308604.65625,308140.4375,308054.71875,308221.28125,308317.21875,281789.4375,0.442626953125,0.88671875,0.19921875,-1.7700194120407104,-0.0915527269244194,0.5187987685203552,80.0,43109.0,1.0
21393.651558,307622.59375,307775.59375,308428.53125,307964.0625,307878.5,308044.59375,308144.5625,281467.40625,0.442626953125,0.88671875,0.19775390625,-1.7395018339157104,-0.1831054538488388,0.4272460639476776,80.0,43110.0,1.0
21393.6515659,307694.40625,307847.375,308501.03125,308036.1875,307950.375,308116.75,308223.5,282741.0,0.443359375,0.885986328125,0.197509765625,-1.6784666776657104,-0.1831054538488388,0.3967284858226776,80.0,43111.0,1.0
21393.6540557,307804.375,307957.0625,308611.0,308145.90625,308059.90625,308226.375,308335.0,283071.90625,0.444580078125,0.886474609375,0.197998046875,-1.6784666776657104,-0.03051757626235485,0.3662109076976776,80.0,43112.0,1.0
21393.6540627,307682.3125,307835.03125,308488.78125,308024.03125,307937.84375,308104.3125,308209.03125,282212.34375,0.44384765625,0.88720703125,0.1962890625,-1.6784666776657104,-0.1525878757238388,0.3051757514476776,80.0,43113.0,1.0
21393.6559806,307561.4375,307714.15625,308367.375,307902.96875,307816.96875,307983.1875,308085.1875,281892.53125,0.44287109375,0.888427734375,0.195556640625,-1.6174315214157104,-0.1220703050494194,0.3051757514476776,80.0,43114.0,1.0
21393.6584852,307678.125,307831.1875,308484.5,308019.65625,307933.84375,308099.84375,308208.21875,282689.78125,0.44091796875,0.8876953125,0.197509765625,-1.6784666776657104,-0.2136230319738388,0.2441406100988388,80.0,43115.0,1.0
21393.6672401,307825.65625,307978.1875,308632.1875,308167.1875,308081.15625,308247.46875,308356.09375,283103.375,0.443115234375,0.886962890625,0.196044921875,-1.7089842557907104,-0.1525878757238388,0.1831054538488388,80.0,43116.0,1.0
21393.6715659,307740.09375,307892.6875,308546.28125,308081.34375,307995.96875,308162.0,308266.4375,282334.71875,0.44140625,0.885009765625,0.196533203125,-1.6479490995407104,-0.1220703050494194,0.2746581733226776,80.0,43117.0,1.0
21393.6715743,307597.9375,307750.1875,308403.3125,307938.5625,307853.53125,308019.46875,308116.84375,281815.09375,0.44287109375,0.886474609375,0.19482421875,-1.6479490995407104,-0.2746581733226776,0.3967284858226776,80.0,43118.0,1.0
21393.6822398,307675.875,307828.25,308481.90625,308017.34375,307931.25,308097.34375,308203.46875,282480.28125,0.442138671875,0.8857421875,0.19091796875,-1.7395018339157104,-0.1525878757238388,0.4577636420726776,80.0,43119.0,1.0
21393.6853628,307843.53125,307995.96875,308649.625,308185.15625,308098.875,308264.8125,308373.875,283071.0,0.442626953125,0.888671875,0.193115234375,-1.8310545682907104,-0.2746581733226776,0.5187987685203552,80.0,43120.0,1.0
21393.6853705,307796.78125,307949.46875,308602.5,308137.9375,308052.28125,308218.3125,308322.5625,282449.25,0.44091796875,0.8857421875,0.19482421875,-1.8615721464157104,-0.2136230319738388,0.6103515028953552,80.0,43121.0,1.0
21393.6872209,307638.6875,307791.21875,308443.8125,307978.96875,307894.21875,308060.53125,308150.8125,281767.71875,0.442138671875,0.887451171875,0.196533203125,-2.014159917831421,-0.1220703050494194,0.7324218153953552,80.0,43122.0,1.0
21393.7015645,307675.0,307827.625,308481.1875,308016.34375,307930.875,308097.0,308199.09375,282270.90625,0.44189453125,0.88623046875,0.199951171875,-2.014159917831421,-0.0915527269244194,0.8850097060203552,80.0,43123.0,1.0
21393.7015725,307851.75,308004.0,308658.28125,308193.375,308107.46875,308273.125,308382.28125,283010.46875,0.445068359375,0.8857421875,0.201416015625,-2.136230230331421,-0.1525878757238388,0.9460448622703552,80.0,43124.0,1.0
21393.7034869,307850.9375,308003.125,308657.03125,308191.9375,308106.21875,308272.40625,308376.75,282576.40625,0.4453125,0.883056640625,0.198974609375,-2.075195074081421,-0.1220703050494194,0.7934569716453552,80.0,43125.0,1.0
21393.7059828,307685.09375,307837.09375,308489.6875,308024.84375,307940.28125,308106.28125,308192.21875,281769.3125,0.44482421875,0.883544921875,0.19775390625,-2.075195074081421,-0.2441406100988388,0.8544921278953552,80.0,43126.0,1.0
21393.715364,307674.375,307826.53125,308479.75,308015.1875,307929.8125,308095.84375,308191.9375,282070.53125,0.4453125,0.883056640625,0.199951171875,-2.105712652206421,-0.2441406100988388,0.8239745497703552,80.0,43127.0,1.0
21393.7153726,307851.40625,308003.75,308657.84375,308192.9375,308107.0,308273.5,308381.3125,282900.84375,0.4462890625,0.88232421875,0.20166015625,-2.044677495956421,-0.1831054538488388,0.7934569716453552,80.0,43128.0,1.0
21393.7172185,307893.6875,308046.125,308699.875,308235.125,308149.375,308315.78125,308420.84375,282668.9375,0.4462890625,0.881591796875,0.201416015625,-2.014159917831421,-0.2441406100988388,0.7019042372703552,80.0,43129.0,1.0
21393.7234756,307711.65625,307864.28125,308517.3125,308052.75,307967.34375,308133.65625,308229.5,281562.78125,0.4462890625,0.880126953125,0.201904296875,-1.8920897245407104,-0.1220703050494194,0.7019042372703552,80.0,43130.0,1.0
21393.7328046,307554.28125,307706.5625,308360.21875,307895.90625,307810.09375,307976.3125,308077.3125,281525.6875,0.446044921875,0.882080078125,0.19970703125,-1.8005369901657104,-0.1831054538488388,0.5493163466453552,80.0,43131.0,1.0
21393.7328106,307652.8125,307805.25,308459.1875,307994.28125,307908.53125,308074.28125,308182.03125,282821.71875,0.4453125,0.882080078125,0.201416015625,-1.8005369901657104,-0.2136230319738388,0.3662109076976776,80.0,43132.0,1.0
21393.7353631,307732.3125,307884.65625,308539.03125,308074.03125,307988.09375,308153.875,308262.84375,282905.25,0.445068359375,0.883544921875,0.201904296875,-1.6784666776657104,-0.1525878757238388,0.1831054538488388,80.0,43133.0,1.0
21393.7353708,307587.375,307739.71875,308393.90625,307929.0,307843.09375,308009.28125,308112.1875,282003.65625,0.444091796875,0.885986328125,0.197265625,-1.7395018339157104,-0.1525878757238388,0.1525878757238388,80.0,43134.0,1.0
21393.743473,307492.875,307645.59375,308299.25,307833.96875,307748.75,307914.53125,308015.90625,281856.5,0.44384765625,0.88623046875,0.1982421875,-1.7395018339157104,-0.1831054538488388,0.0610351525247097,80.0,43135.0,1.0
21393.7478168,307631.625,307784.53125,308438.34375,307973.53125,307887.6875,308053.46875,308162.0,282706.3125,0.442138671875,0.88525390625,0.19873046875,-1.6174315214157104,-0.1831054538488388,0.0610351525247097,80.0,43136.0,1.0
21393.7478247,307749.84375,307902.4375,308556.625,308091.625,308005.625,308172.0,308280.71875,282923.21875,0.44140625,0.88525390625,0.1962890625,-1.5869139432907104,-0.1220703050494194,0.0610351525247097,80.0,43137.0,1.0
21393.7603629,307633.25,307785.6875,308439.4375,307974.5,307888.78125,308055.15625,308156.375,282073.3125,0.441650390625,0.887451171875,0.1943359375,-1.6784666776657104,-0.0915527269244194,0.0915527269244194,80.0,43138.0,1.0
21393.7603715,307510.21875,307662.46875,308315.875,307850.78125,307765.5625,307931.59375,308026.8125,281723.53125,0.4423828125,0.887939453125,0.193603515625,-1.6174315214157104,-0.1220703050494194,0.0915527269244194,80.0,43139.0,1.0
21393.7622213,307623.75,307776.375,308430.03125,307965.375,307879.28125,308045.3125,308152.0625,282511.40625,0.44140625,0.88818359375,0.19580078125,-1.5563963651657104,-0.2136230319738388,0.1831054538488388,80.0,43140.0,1.0
21393.7653646,307772.625,307925.78125,308579.09375,308114.875,308028.59375,308194.8125,308303.34375,282948.5,0.441650390625,0.888427734375,0.193603515625,-1.6784666776657104,-0.1525878757238388,0.2746581733226776,80.0,43141.0,1.0
21393.7653727,307693.78125,307846.3125,308499.59375,308035.125,307949.46875,308115.59375,308217.0625,282212.78125,0.438720703125,0.887451171875,0.1962890625,-1.8005369901657104,-0.1831054538488388,0.3051757514476776,80.0,43142.0,1.0
21393.7672303,307545.28125,307697.71875,308350.5625,307886.0,307801.0625,307967.09375,308056.5,281669.8125,0.442626953125,0.887939453125,0.1943359375,-1.7700194120407104,-0.1831054538488388,0.4272460639476776,80.0,43143.0,1.0
21393.7797377,307617.96875,307770.9375,308424.21875,307959.5625,307874.09375,308040.03125,308143.75,282325.53125,0.441650390625,0.888427734375,0.196533203125,-1.7700194120407104,-0.1831054538488388,0.5493163466453552,80.0,43144.0,1.0
21393.7828085,307787.03125,307939.90625,308593.84375,308129.0,308043.1875,308209.375,308317.75,282941.0,0.44140625,0.88916015625,0.197021484375,-1.8920897245407104,-0.1220703050494194,0.6408690810203552,80.0,43145.0,1.0
21393.7828163,307751.625,307904.0625,308558.0625,308093.40625,308007.6875,308173.625,308276.34375,282363.875,0.442138671875,0.88671875,0.194091796875,-1.9836424589157104,-0.0915527269244194,0.7019042372703552,80.0,43146.0,1.0
21393.7847252,307587.1875,307739.71875,308392.21875,307928.28125,307843.25,308009.125,308094.21875,281658.8125,0.443603515625,0.885498046875,0.197509765625,-1.9836424589157104,0.03051757626235485,0.7019042372703552,80.0,43147.0,1.0
21393.795972,307618.5,307771.09375,308424.59375,307960.28125,307874.375,308040.5,308140.34375,282139.46875,0.443359375,0.88330078125,0.1982421875,-1.9836424589157104,-0.2441406100988388,0.7934569716453552,80.0,43148.0,1.0
21393.7990587,307798.75,307951.1875,308605.28125,308140.8125,308054.25,308220.46875,308328.90625,282891.65625,0.444580078125,0.885498046875,0.197509765625,-1.9226073026657104,-0.2441406100988388,0.6713866591453552,80.0,43149.0,1.0
21393.7990669,307807.75,307960.03125,308614.40625,308149.46875,308063.65625,308229.5,308333.84375,282498.625,0.443359375,0.883544921875,0.2001953125,-1.8920897245407104,-0.2136230319738388,0.6713866591453552,80.0,43150.0,1.0
21393.8009703,307617.78125,307770.75,308424.21875,307959.3125,307874.09375,308040.03125,308133.75,281444.0625,0.443115234375,0.885986328125,0.197998046875,-1.8920897245407104,-0.2136230319738388,0.6713866591453552,80.0,43151.0,1.0
21393.8153622,307505.125,307657.5625,308311.40625,307846.46875,307760.5625,307926.84375,308028.34375,281629.3125,0.44482421875,0.8837890625,0.196533203125,-1.8310545682907104,-0.1831054538488388,0.4882812201976776,80.0,43152.0,1.0
21393.8153703,307627.25,307779.78125,308433.625,307969.15625,307882.96875,308049.15625,308156.90625,282861.25,0.4453125,0.884765625,0.1923828125,-1.8310545682907104,-0.1220703050494194,0.4272460639476776,80.0,43153.0,1.0
21393.8172348,307678.75,307831.71875,308485.65625,308021.1875,307934.8125,308100.75,308209.03125,282743.59375,0.445068359375,0.884765625,0.195556640625,-1.9226073026657104,-0.0915527269244194,0.3051757514476776,80.0,43154.0,1.0
21393.8209868,307519.25,307671.875,308325.625,307860.78125,307775.40625,307941.59375,308041.21875,281841.46875,0.446044921875,0.88330078125,0.1982421875,-1.8005369901657104,-0.2136230319738388,0.3051757514476776,80.0,43155.0,1.0
21393.8297254,307458.09375,307610.4375,308264.1875,307799.4375,307714.15625,307880.1875,307980.84375,281874.1875,0.443359375,0.88525390625,0.19873046875,-1.8615721464157104,-0.0915527269244194,0.3967284858226776,80.0,43156.0,1.0
21393.8328016,307619.65625,307772.4375,308426.1875,307961.375,307875.4375,308041.75,308149.9375,282740.46875,0.442626953125,0.885986328125,0.20166015625,-1.8920897245407104,-0.03051757626235485,0.3662109076976776,80.0,43157.0,1.0
21393.8328076,307713.34375,307866.5,308519.90625,308055.34375,307969.40625,308136.0625,308243.90625,282799.125,0.443359375,0.885498046875,0.201416015625,-1.9531248807907104,-0.0610351525247097,0.4272460639476776,80.0,43158.0,1.0
21393.8384794,307573.15625,307726.125,308379.0625,307914.25,307828.96875,307995.6875,308092.78125,281904.9375,0.441650390625,0.88525390625,0.19873046875,-1.8310545682907104,-0.1525878757238388,0.4272460639476776,80.0,43159.0,1.0
21393.8478073,307470.4375,307623.3125,308276.4375,307811.34375,307726.3125,307892.53125,307987.21875,281716.75,0.443115234375,0.88427734375,0.197998046875,-1.8920897245407104,-0.1220703050494194,0.5493163466453552,80.0,43160.0,1.0
21393.8478155,307607.21875,307760.125,308414.3125,307949.375,307863.375,308029.6875,308136.96875,282560.125,0.44091796875,0.885009765625,0.197509765625,-1.8920897245407104,-0.2441406100988388,0.5798339247703552,80.0,43161.0,1.0
21393.85036,307735.96875,307888.5,308543.40625,308078.3125,307992.125,308158.5,308266.875,282842.75,0.443359375,0.884521484375,0.200439453125,-1.8310545682907104,-0.1831054538488388,0.5798339247703552,80.0,43162.0,1.0
21393.8503674,307625.09375,307778.09375,308431.5625,307966.8125,307881.34375,308047.375,308145.0,282015.0,0.44287109375,0.88720703125,0.19970703125,-1.8920897245407104,-0.1525878757238388,0.4882812201976776,80.0,43163.0,1.0
21393.8634804,307490.71875,307643.4375,308296.09375,307831.71875,307746.53125,307912.71875,308000.34375,281612.6875,0.4443359375,0.886474609375,0.200927734375,-1.9226073026657104,-0.0915527269244194,0.4882812201976776,80.0,43164.0,1.0
21393.8665619,307593.46875,307746.15625,308400.09375,307935.4375,307849.15625,308015.625,308120.6875,282369.875,0.442138671875,0.884521484375,0.19775390625,-1.9531248807907104,-0.1525878757238388,0.5798339247703552,80.0,43165.0,1.0
21393.8665691,307748.5625,307901.1875,308555.46875,308090.8125,308004.46875,308170.9375,308279.21875,282852.125,0.444580078125,0.883544921875,0.19873046875,-1.9836424589157104,-0.1831054538488388,0.5493163466453552,80.0,43166.0,1.0
21393.8684846,307677.40625,307829.75,308483.59375,308019.21875,307933.1875,308099.78125,308198.21875,282147.25,0.443359375,0.8837890625,0.19921875,-1.9226073026657104,-0.1831054538488388,0.4882812201976776,80.0,43167.0,1.0
21393.8709709,307520.15625,307672.5,308325.4375,307860.78125,307776.125,307942.78125,308023.875,281554.3125,0.4423828125,0.8828125,0.200439453125,-1.9226073026657104,-0.1831054538488388,0.4882812201976776,80.0,43168.0,1.0
21393.8772227,307583.96875,307736.6875,308390.53125,307925.59375,307839.875,308006.53125,308107.375,282170.59375,0.44091796875,0.88330078125,0.201416015625,-1.8920897245407104,-0.1525878757238388,0.3662109076976776,80.0,43169.0,1.0
21393.8815642,307757.59375,307910.5,308564.6875,308099.6875,308013.65625,308180.15625,308288.59375,282815.21875,0.442138671875,0.884765625,0.19921875,-1.7395018339157104,-0.1220703050494194,0.3051757514476776,80.0,43170.0,1.0
21393.8815716,307729.53125,307882.59375,308536.15625,308071.34375,307986.03125,308151.90625,308254.1875,282240.59375,0.442626953125,0.885498046875,0.198974609375,-1.6784666776657104,-0.0915527269244194,0.3051757514476776,80.0,43171.0,1.0
21393.8847234,307516.46875,307669.28125,308322.40625,307857.9375,307772.71875,307938.46875,308036.125,281180.5,0.441162109375,0.885009765625,0.19873046875,-1.6479490995407104,-0.1525878757238388,0.1831054538488388,80.0,43172.0,1.0
21393.898472,307421.96875,307575.03125,308228.5,307763.78125,307678.3125,307844.34375,307947.0625,281711.65625,0.44140625,0.886474609375,0.1962890625,-1.7089842557907104,-0.2441406100988388,0.2746581733226776,80.0,43173.0,1.0
21393.9084594,307557.0625,307709.59375,308364.0625,307899.40625,307813.21875,307979.34375,308087.4375,282857.59375,0.44140625,0.88623046875,0.196044921875,-1.6784666776657104,-0.0915527269244194,0.1831054538488388,80.0,43174.0,1.0
21393.9084676,307577.09375,307729.625,308384.0,307919.4375,307832.96875,307999.09375,308106.375,282552.0,0.4404296875,0.88671875,0.197021484375,-1.6784666776657104,-0.0915527269244194,0.3662109076976776,80.0,43175.0,1.0
21393.9084718,307410.625,307563.40625,308216.625,307752.25,307666.3125,307832.625,307931.9375,281696.0,0.4404296875,0.88623046875,0.2001953125,-1.8310545682907104,-0.2441406100988388,0.3662109076976776,80.0,43176.0,1.0
21393.9140754,307386.3125,307539.375,308192.65625,307728.28125,307642.1875,307808.65625,307912.09375,281927.40625,0.440673828125,0.885986328125,0.197509765625,-1.8310545682907104,-0.2441406100988388,0.5493163466453552,80.0,43177.0,1.0
21393.9140836,307560.46875,307713.4375,308367.4375,307902.90625,307816.53125,307982.90625,308091.375,282773.53125,0.441162109375,0.885009765625,0.19873046875,-1.8615721464157104,-0.2136230319738388,0.6103515028953552,80.0,43178.0,1.0
21393.9159653,307625.8125,307778.4375,308433.0,307968.25,307882.25,308048.28125,308156.09375,282660.625,0.442138671875,0.883056640625,0.198974609375,-1.8920897245407104,-0.1220703050494194,0.6103515028953552,80.0,43179.0,1.0
21393.930364,307469.4375,307621.96875,308275.625,307810.96875,307725.78125,307891.625,307989.34375,281759.21875,0.443359375,0.88525390625,0.1982421875,-1.9531248807907104,-0.1525878757238388,0.6408690810203552,80.0,43180.0,1.0
21393.9303722,307403.03125,307555.625,308209.375,307744.5625,307659.25,307825.28125,307924.25,281773.53125,0.442626953125,0.883056640625,0.197998046875,-1.8920897245407104,-0.2441406100988388,0.6408690810203552,80.0,43181.0,1.0
21393.9328039,307562.875,307715.75,308369.875,307905.3125,307819.3125,307985.25,308093.0625,282642.84375,0.443359375,0.884765625,0.19921875,-1.9836424589157104,-0.2441406100988388,0.6713866591453552,80.0,43182.0,1.0
21393.9328106,307667.75,307820.375,308474.28125,308009.8125,307923.8125,308089.65625,308197.75,282751.375,0.44189453125,0.885986328125,0.200439453125,-1.9226073026657104,-0.2136230319738388,0.6103515028953552,80.0,43183.0,1.0
21393.9440568,307529.96875,307682.25,308335.71875,307871.0625,307785.5,307951.53125,308048.53125,281858.71875,0.442138671875,0.884521484375,0.19873046875,-1.8920897245407104,-0.1525878757238388,0.4882812201976776,80.0,43184.0,1.0
21393.9440645,307425.5625,307577.8125,308231.1875,307766.71875,307681.6875,307847.5625,307941.15625,281649.53125,0.445068359375,0.88427734375,0.19921875,-1.9531248807907104,-0.2746581733226776,0.5187987685203552,80.0,43185.0,1.0
21393.9534588,307557.15625,307710.03125,308363.59375,307899.3125,307813.3125,307979.15625,308086.34375,282474.9375,0.4453125,0.884033203125,0.197509765625,-1.8615721464157104,-0.2136230319738388,0.4882812201976776,80.0,43186.0,1.0
21393.9534667,307690.8125,307843.96875,308497.53125,308033.53125,307947.0625,308113.28125,308221.4375,282785.25,0.4462890625,0.885986328125,0.197509765625,-1.8005369901657104,-0.2746581733226776,0.3967284858226776,80.0,43187.0,1.0
21393.9534707,307581.375,307733.90625,308386.9375,307922.75,307837.09375,308003.375,308099.0625,281953.40625,0.44580078125,0.88427734375,0.196533203125,-1.8310545682907104,-0.2746581733226776,0.3662109076976776,80.0,43188.0,1.0
21393.9565497,307444.0625,307596.59375,308249.25,307784.59375,307699.75,307865.875,307950.5625,281527.75,0.446044921875,0.885498046875,0.19482421875,-1.8005369901657104,-0.1220703050494194,0.3662109076976776,80.0,43189.0,1.0
21393.9565557,307542.59375,307695.375,308349.3125,307884.21875,307798.5625,307964.6875,308068.75,282254.28125,0.4453125,0.8857421875,0.196533203125,-1.8005369901657104,-0.2441406100988388,0.3662109076976776,80.0,43190.0,1.0
21393.9645805,307697.875,307850.21875,308504.78125,308039.6875,307953.78125,308119.53125,308228.59375,282749.5,0.4453125,0.88720703125,0.1982421875,-1.8310545682907104,-0.2441406100988388,0.3356933295726776,80.0,43191.0,1.0
21393.9904176,307625.09375,307777.625,308430.9375,307966.1875,307880.90625,308046.40625,308146.875,281984.875,0.444091796875,0.885498046875,0.19482421875,-1.8310545682907104,-0.2441406100988388,0.3662109076976776,80.0,43192.0,1.0
21393.990426,307413.21875,307565.84375,308218.78125,307754.3125,307669.09375,307834.78125,307932.5,281058.34375,0.44287109375,0.88671875,0.19677734375,-1.6479490995407104,-0.2136230319738388,0.3967284858226776,80.0,43193.0,1.0
21393.994724,307363.3125,307516.3125,308169.78125,307704.9375,307619.5625,307785.40625,307889.84375,281863.03125,0.442138671875,0.886474609375,0.199462890625,-1.8310545682907104,-0.1831054538488388,0.5493163466453552,80.0,43194.0,1.0
21393.9978066,307506.03125,307659.09375,308312.90625,307848.1875,307762.0625,307928.03125,308036.46875,282826.84375,0.441650390625,0.886962890625,0.19580078125,-1.8615721464157104,-0.2136230319738388,0.4882812201976776,80.0,43195.0,1.0
21393.9978146,307482.15625,307634.84375,308289.125,307824.40625,307738.125,307903.875,308010.71875,282306.21875,0.441650390625,0.8857421875,0.1962890625,-2.014159917831421,-0.1525878757238388,0.4272460639476776,80.0,43196.0,1.0
21393.9997313,307316.28125,307468.65625,308122.5625,307657.5625,307572.0,307738.125,307836.90625,281553.21875,0.442626953125,0.88525390625,0.19482421875,-1.9226073026657104,-0.1220703050494194,0.5187987685203552,80.0,43197.0,1.0
21394.002227,307333.09375,307485.625,308139.1875,307674.1875,307588.90625,307754.65625,307859.8125,281973.53125,0.443603515625,0.885498046875,0.195556640625,-1.8310545682907104,-0.1220703050494194,0.5493163466453552,80.0,43198.0,1.0
21394.0049678,307509.59375,307662.03125,308315.96875,307850.84375,307765.03125,307930.53125,308039.96875,282753.875,0.444091796875,0.8857421875,0.19677734375,-1.8615721464157104,-0.1220703050494194,0.6103515028953552,80.0,43199.0,1.0
21394.0072246,307531.78125,307684.375,308337.78125,307873.125,307787.1875,307952.875,308060.0625,282431.65625,0.44384765625,0.88818359375,0.197265625,-1.8920897245407104,-0.1220703050494194,0.5493163466453552,80.0,43200.0,1.0
21394.0097222,307366.71875,307519.34375,308172.375,307707.53125,307622.25,307787.90625,307883.9375,281579.0625,0.444580078125,0.887451171875,0.196044921875,-1.8615721464157104,-0.1831054538488388,0.5493163466453552,80.0,43201.0,1.0
21394.0122281,307341.78125,307494.5625,308147.875,307682.875,307597.21875,307763.25,307864.53125,281802.84375,0.44287109375,0.885986328125,0.197021484375,-1.8615721464157104,-0.1831054538488388,0.5493163466453552,80.0,43202.0,1.0
21394.0153601,307514.78125,307667.65625,308321.40625,307856.3125,307770.21875,307936.6875,308044.875,282655.78125,0.44189453125,0.886474609375,0.2001953125,-1.8920897245407104,-0.2136230319738388,0.5493163466453552,80.0,43203.0,1.0
21394.0153679,307581.46875,307734.375,308388.1875,307923.375,307837.0,308003.5625,308110.75,282558.0625,0.44287109375,0.884521484375,0.201171875,-1.8615721464157104,-0.2136230319738388,0.4882812201976776,80.0,43204.0,1.0
21394.017214,307425.5625,307578.34375,308231.375,307766.46875,307681.0625,307847.28125,307941.59375,281655.78125,0.44482421875,0.885498046875,0.1982421875,-1.8310545682907104,-0.1525878757238388,0.4272460639476776,80.0,43205.0,1.0
21394.0309716,307358.5,307510.9375,308164.5,307699.5,307614.03125,307779.875,307876.15625,281657.90625,0.444580078125,0.884765625,0.20068359375,-1.8310545682907104,-0.0915527269244194,0.3662109076976776,80.0,43206.0,1.0
21394.0340626,307513.53125,307665.6875,308320.34375,307855.34375,307768.875,307934.71875,308043.1875,282521.5,0.443603515625,0.884033203125,0.201171875,-1.8920897245407104,-0.0610351525247097,0.3356933295726776,80.0,43207.0,1.0
21394.0340704,307617.40625,307769.9375,308424.0625,307959.5625,307872.9375,308038.625,308147.0625,282645.6875,0.4423828125,0.884765625,0.1982421875,-1.8005369901657104,-0.1831054538488388,0.3662109076976776,80.0,43208.0,1.0
21394.035985,307482.3125,307635.03125,308288.15625,307823.59375,307738.125,307903.6875,307997.03125,281751.1875,0.441650390625,0.884033203125,0.19775390625,-1.8005369901657104,-0.1525878757238388,0.3051757514476776,80.0,43209.0,1.0
21394.0384698,307378.0,307530.59375,308183.53125,307718.53125,307633.59375,307799.4375,307887.96875,281529.4375,0.44140625,0.885009765625,0.19775390625,-1.7089842557907104,-0.1831054538488388,0.3051757514476776,80.0,43210.0,1.0
21394.0472208,307506.71875,307658.90625,308313.375,307848.0,307762.15625,307928.09375,308034.59375,282345.28125,0.4404296875,0.8857421875,0.198974609375,-1.7700194120407104,-0.1831054538488388,0.3967284858226776,80.0,43211.0,1.0
21394.0503601,307644.78125,307796.84375,308451.3125,307986.3125,307899.9375,308065.875,308174.5,282684.21875,0.44091796875,0.885498046875,0.202392578125,-1.7700194120407104,-0.1831054538488388,0.5187987685203552,80.0,43212.0,1.0
21394.0503683,307540.53125,307692.59375,308346.0,307881.34375,307795.875,307961.90625,308057.3125,281833.875,0.4404296875,0.88623046875,0.2001953125,-1.7700194120407104,-0.1220703050494194,0.4882812201976776,80.0,43213.0,1.0
21394.0584702,307365.46875,307517.5625,308170.65625,307706.09375,307620.71875,307786.65625,307879.28125,281118.09375,0.44091796875,0.885498046875,0.20166015625,-1.7700194120407104,-0.2136230319738388,0.4882812201976776,80.0,43214.0,1.0
21394.0653601,307366.53125,307518.4375,308172.375,307707.8125,307621.8125,307787.8125,307892.6875,282006.0625,0.44287109375,0.885009765625,0.19873046875,-1.8920897245407104,-0.1220703050494194,0.5493163466453552,80.0,43215.0,1.0
21394.065368,307504.84375,307656.75,308311.125,307846.21875,307759.65625,307926.40625,308035.21875,282801.25,0.442626953125,0.88525390625,0.196044921875,-1.9226073026657104,-0.2441406100988388,0.5798339247703552,80.0,43216.0,1.0
21394.0678029,307441.8125,307594.0,308248.375,307782.8125,307696.90625,307863.1875,307968.53125,282119.34375,0.44091796875,0.8837890625,0.196533203125,-1.8310545682907104,-0.3051757514476776,0.5798339247703552,80.0,43217.0,1.0
21394.0678098,307285.90625,307438.34375,308092.15625,307626.90625,307541.15625,307707.4375,307804.625,281499.84375,0.44091796875,0.884033203125,0.196044921875,-1.8920897245407104,-0.2746581733226776,0.6408690810203552,80.0,43218.0,1.0
21394.0772498,307335.0625,307487.6875,308141.53125,307676.6875,307590.40625,307756.4375,307861.6875,282058.375,0.443115234375,0.883056640625,0.194580078125,-1.9226073026657104,-0.2441406100988388,0.7324218153953552,80.0,43219.0,1.0
21394.0797264,307509.59375,307662.21875,308316.125,307851.5625,307765.03125,307931.40625,308039.78125,282743.5,0.445068359375,0.884521484375,0.197998046875,-1.9531248807907104,-0.0915527269244194,0.6408690810203552,80.0,43220.0,1.0
21394.0834672,307492.25,307644.59375,308298.25,307833.6875,307747.40625,307913.71875,308018.84375,282233.96875,0.444580078125,0.8837890625,0.2001953125,-1.8615721464157104,-0.1525878757238388,0.6103515028953552,80.0,43221.0,1.0
21394.0928075,307322.46875,307474.90625,308127.84375,307663.09375,307577.8125,307744.09375,307835.3125,281460.5,0.444091796875,0.885009765625,0.19873046875,-1.9226073026657104,-0.2136230319738388,0.6103515028953552,80.0,43222.0,1.0
21394.092816,307326.40625,307479.375,308132.65625,307668.1875,307582.0,307748.3125,307849.34375,281825.1875,0.4443359375,0.885009765625,0.19775390625,-1.8615721464157104,-0.2441406100988388,0.5798339247703552,80.0,43223.0,1.0
21394.0947273,307505.65625,307658.71875,308312.46875,307847.90625,307761.4375,307927.65625,308036.1875,282618.40625,0.44287109375,0.885498046875,0.199951171875,-1.8005369901657104,-0.2441406100988388,0.4272460639476776,80.0,43224.0,1.0
21394.0984678,307533.03125,307685.8125,308339.5625,307874.71875,307788.8125,307955.09375,308060.15625,282322.9375,0.44580078125,0.886474609375,0.198486328125,-1.7395018339157104,-0.3356933295726776,0.3967284858226776,80.0,43225.0,1.0
21394.1128041,307362.6875,307515.3125,308168.0625,307702.90625,307618.5,307784.6875,307869.90625,281450.6875,0.444091796875,0.886474609375,0.197998046875,-1.7089842557907104,-0.2746581733226776,0.4272460639476776,80.0,43226.0,1.0
21394.1128115,307323.71875,307476.6875,308129.53125,307664.8125,307579.78125,307746.0625,307838.34375,281604.90625,0.444580078125,0.886962890625,0.198486328125,-1.7089842557907104,-0.2746581733226776,0.4882812201976776,80.0,43227.0,1.0
21394.1147197,307495.46875,307648.09375,308301.90625,307837.1875,307751.09375,307917.375,308025.28125,282458.28125,0.444580078125,0.885986328125,0.1953125,-1.6784666776657104,-0.2441406100988388,0.4272460639476776,80.0,43228.0,1.0
21394.1178099,307571.46875,307723.53125,308377.46875,307912.8125,307826.53125,307992.9375,308098.96875,282400.1875,0.445068359375,0.88623046875,0.19775390625,-1.6479490995407104,-0.1525878757238388,0.3662109076976776,80.0,43229.0,1.0
21394.117817,307400.53125,307552.78125,308205.8125,307741.34375,307655.78125,307821.71875,307917.65625,281312.90625,0.442138671875,0.88623046875,0.1982421875,-1.7395018339157104,-0.2136230319738388,0.2746581733226776,80.0,43230.0,1.0
21394.1197294,307223.59375,307375.75,308029.125,307564.75,307479.09375,307645.03125,307745.53125,281036.90625,0.443359375,0.88671875,0.197265625,-1.7089842557907104,-0.0610351525247097,0.3967284858226776,80.0,43231.0,1.0
21394.1334788,307291.25,307443.34375,308097.4375,307632.78125,307546.53125,307712.90625,307819.5625,282305.3125,0.444091796875,0.886962890625,0.19677734375,-1.6479490995407104,-0.1525878757238388,0.3967284858226776,80.0,43232.0,1.0
21394.1365541,307398.09375,307550.4375,308204.71875,307740.25,307653.71875,307820.28125,307928.65625,282638.96875,0.44287109375,0.8876953125,0.1953125,-1.6479490995407104,-0.2441406100988388,0.3967284858226776,80.0,43233.0,1.0
21394.1365615,307271.78125,307424.21875,308078.5,307613.84375,307527.75,307693.78125,307797.65625,281763.59375,0.443115234375,0.88720703125,0.19384765625,-1.7395018339157104,-0.1220703050494194,0.3967284858226776,80.0,43234.0,1.0
21394.1384772,307156.0625,307308.34375,307962.4375,307497.53125,307412.125,307577.8125,307679.1875,281482.9375,0.443603515625,0.886962890625,0.1953125,-1.7395018339157104,-0.1220703050494194,0.3662109076976776,80.0,43235.0,1.0
21394.1459681,307276.25,307428.5,308082.5,307617.96875,307532.21875,307697.875,307805.8125,282279.3125,0.443115234375,0.886962890625,0.194580078125,-1.8005369901657104,-0.0915527269244194,0.3967284858226776,80.0,43236.0,1.0
21394.150359,307426.625,307578.71875,308233.0625,307768.4375,307682.3125,307848.1875,307956.71875,282689.5,0.44189453125,0.885986328125,0.196044921875,-1.8310545682907104,-0.03051757626235485,0.3967284858226776,80.0,43237.0,1.0
21394.1503677,307334.09375,307486.0,308139.71875,307675.25,307589.875,307755.28125,307859.8125,281907.46875,0.443115234375,0.885986328125,0.198486328125,-1.8615721464157104,-0.1220703050494194,0.4272460639476776,80.0,43238.0,1.0
21394.1559718,307193.53125,307345.34375,307998.8125,307534.53125,307448.96875,307614.8125,307712.8125,281428.25,0.442626953125,0.88525390625,0.19873046875,-1.8920897245407104,-0.03051757626235485,0.4577636420726776,80.0,43239.0,1.0
21394.1678052,307273.125,307425.71875,308079.75,307615.28125,307529.0,307694.9375,307801.5,282103.71875,0.4423828125,0.88720703125,0.196533203125,-1.8615721464157104,-0.0915527269244194,0.4577636420726776,80.0,43240.0,1.0
21394.1678133,307445.75,307598.375,308252.46875,307787.75,307701.71875,307867.9375,307976.5625,282701.75,0.443115234375,0.88525390625,0.197265625,-1.8310545682907104,-0.1220703050494194,0.5187987685203552,80.0,43241.0,1.0
21394.1703594,307395.34375,307548.03125,308201.59375,307737.125,307651.3125,307817.40625,307922.65625,282067.125,0.44189453125,0.887939453125,0.19580078125,-1.8615721464157104,-0.1220703050494194,0.4882812201976776,80.0,43242.0,1.0
21394.1703679,307234.65625,307387.5625,308040.3125,307575.75,307490.625,307656.5625,307751.875,281410.34375,0.443603515625,0.887939453125,0.19677734375,-1.8920897245407104,-0.2441406100988388,0.4577636420726776,80.0,43243.0,1.0
21394.1722142,307273.5625,307426.34375,308079.84375,307615.09375,307529.09375,307695.46875,307799.625,281911.9375,0.4453125,0.886962890625,0.19970703125,-1.9836424589157104,-0.2746581733226776,0.4882812201976776,80.0,43244.0,1.0
21394.1834763,307456.65625,307609.5625,308263.375,307798.5625,307712.0,307878.65625,307987.28125,282653.75,0.444091796875,0.88671875,0.198486328125,-1.8920897245407104,-0.2746581733226776,0.5493163466453552,80.0,43245.0,1.0
21394.1859844,307453.0,307605.625,308259.28125,307794.625,307708.34375,307874.90625,307980.15625,282204.75,0.4453125,0.88671875,0.195068359375,-1.8310545682907104,-0.2136230319738388,0.5798339247703552,80.0,43246.0,1.0
21394.1884833,307284.375,307436.90625,308089.5625,307625.1875,307539.46875,307706.1875,307795.875,281410.4375,0.44287109375,0.88525390625,0.193115234375,-1.7395018339157104,-0.1525878757238388,0.5493163466453552,80.0,43247.0,1.0
21394.1909653,307274.0,307426.34375,308079.90625,307615.28125,307529.53125,307695.8125,307794.4375,281709.25,0.442626953125,0.88671875,0.19580078125,-1.8615721464157104,-0.1220703050494194,0.5493163466453552,80.0,43248.0,1.0
21394.1972284,307455.0625,307607.21875,308261.3125,307796.5,307710.65625,307877.15625,307985.40625,282542.25,0.44189453125,0.88525390625,0.197265625,-1.9836424589157104,-0.0915527269244194,0.4577636420726776,80.0,43249.0,1.0
21394.201582,307497.25,307649.34375,308303.4375,307838.34375,307752.5,307919.0625,308024.5625,282308.71875,0.44482421875,0.88427734375,0.19970703125,-1.8615721464157104,-0.2441406100988388,0.5493163466453552,80.0,43250.0,1.0
21394.2015906,307331.75,307484.125,308136.78125,307671.875,307586.9375,307753.59375,307838.4375,281431.375,0.446044921875,0.885009765625,0.1943359375,-1.9836424589157104,-0.2746581733226776,0.5798339247703552,80.0,43251.0,1.0
21394.2147218,307276.5,307428.6875,308081.71875,307616.96875,307531.84375,307698.25,307787.8125,281511.03125,0.44384765625,0.883544921875,0.196533203125,-1.9836424589157104,-0.1525878757238388,0.6408690810203552,80.0,43252.0,1.0
21394.217796,307447.1875,307599.625,308253.375,307788.625,307702.53125,307869.1875,307976.375,282381.03125,0.444580078125,0.8828125,0.198974609375,-1.8920897245407104,-0.1525878757238388,0.6408690810203552,80.0,43253.0,1.0
21394.2178036,307533.8125,307686.34375,308340.0,307875.1875,307789.25,307955.90625,308062.03125,282377.28125,0.443603515625,0.8828125,0.197998046875,-1.9226073026657104,-0.1220703050494194,0.4882812201976776,80.0,43254.0,1.0
21394.2197202,307366.375,307518.96875,308172.375,307707.4375,307622.15625,307788.53125,307885.28125,281295.09375,0.445068359375,0.88330078125,0.198486328125,-1.8615721464157104,-0.03051757626235485,0.4272460639476776,80.0,43255.0,1.0
21394.2222262,307176.8125,307329.4375,307982.75,307518.25,307432.4375,307599.0,307699.125,280945.53125,0.44384765625,0.882568359375,0.201416015625,-1.7700194120407104,-0.1220703050494194,0.4577636420726776,80.0,43256.0,1.0
21394.2365483,307238.25,307390.40625,308044.15625,307579.5,307493.3125,307660.0625,307766.46875,282206.53125,0.444091796875,0.883056640625,0.199462890625,-1.8615721464157104,-0.2136230319738388,0.3967284858226776,80.0,43257.0,1.0
21394.2365565,307353.9375,307506.46875,308160.46875,307695.8125,307609.46875,307775.59375,307884.375,282580.34375,0.442138671875,0.884033203125,0.199951171875,-1.8005369901657104,-0.1831054538488388,0.4272460639476776,80.0,43258.0,1.0
21394.2384693,307232.6875,307385.3125,308038.71875,307573.96875,307488.03125,307654.15625,307757.53125,281718.53125,0.44189453125,0.8828125,0.199951171875,-1.8005369901657104,-0.3051757514476776,0.3967284858226776,80.0,43259.0,1.0
21394.2409668,307104.3125,307256.75,307910.125,307444.9375,307359.65625,307525.875,307624.21875,281369.0625,0.441650390625,0.88671875,0.198974609375,-1.7700194120407104,-0.3356933295726776,0.2746581733226776,80.0,43260.0,1.0
21394.2447262,307215.53125,307367.71875,308021.90625,307556.96875,307471.15625,307637.28125,307744.28125,282141.15625,0.441162109375,0.884033203125,0.19873046875,-1.6479490995407104,-0.3051757514476776,0.3051757514476776,80.0,43261.0,1.0
21394.2490611,307369.03125,307521.46875,308175.40625,307710.5,307624.65625,307790.96875,307899.125,282579.25,0.443115234375,0.885986328125,0.199462890625,-1.6174315214157104,-0.1831054538488388,0.3051757514476776,80.0,43262.0,1.0
21394.2490696,307284.1875,307436.28125,308090.28125,307625.46875,307540.0,307705.84375,307808.03125,281820.03125,0.44384765625,0.8896484375,0.197998046875,-1.6174315214157104,-0.2136230319738388,0.2746581733226776,80.0,43263.0,1.0
21394.2622175,307132.5625,307284.46875,307937.6875,307472.75,307388.28125,307553.9375,307646.125,281284.03125,0.442138671875,0.89013671875,0.19775390625,-1.6174315214157104,-0.1831054538488388,0.3662109076976776,80.0,43264.0,1.0
21394.2721474,307204.4375,307356.71875,308010.4375,307545.53125,307460.15625,307626.28125,307730.25,281927.03125,0.442138671875,0.887451171875,0.194091796875,-1.6479490995407104,-0.1525878757238388,0.3356933295726776,80.0,43265.0,1.0
21394.2721537,307382.28125,307534.34375,308188.46875,307723.71875,307637.71875,307804.0,307912.09375,282547.15625,0.441650390625,0.884765625,0.193359375,-1.6784666776657104,-0.2136230319738388,0.4577636420726776,80.0,43266.0,1.0
21394.2721569,307339.0,307491.0,308145.09375,307680.09375,307594.4375,307760.8125,307863.1875,281944.125,0.443115234375,0.88525390625,0.19580078125,-1.8310545682907104,-0.2136230319738388,0.4882812201976776,80.0,43267.0,1.0
21394.2753584,307170.90625,307323.1875,307976.46875,307511.1875,307426.71875,307593.1875,307679.65625,281255.78125,0.443115234375,0.886474609375,0.19580078125,-1.8615721464157104,-0.1525878757238388,0.4882812201976776,80.0,43268.0,1.0
21394.2753661,307202.9375,307355.28125,308008.9375,307543.75,307458.71875,307624.75,307724.625,281729.96875,0.44140625,0.8876953125,0.19580078125,-1.8615721464157104,-0.0915527269244194,0.5187987685203552,80.0,43269.0,1.0
21394.2772256,307388.28125,307540.53125,308194.375,307729.4375,307643.71875,307810.09375,307918.375,282492.90625,0.44189453125,0.885986328125,0.19775390625,-1.9531248807907104,-0.1525878757238388,0.6103515028953552,80.0,43270.0,1.0
21394.2897143,307392.46875,307544.71875,308198.21875,307733.5625,307647.71875,307814.28125,307917.75,282083.6875,0.444580078125,0.885009765625,0.196044921875,-1.9836424589157104,-0.1220703050494194,0.6103515028953552,80.0,43271.0,1.0
21394.3216836,307225.1875,307377.4375,308030.03125,307564.84375,307480.8125,307647.0,307730.0625,281279.625,0.44384765625,0.88427734375,0.19677734375,-1.9226073026657104,-0.0610351525247097,0.6713866591453552,80.0,43272.0,1.0
21394.3216921,307210.4375,307362.6875,308016.0,307551.0,307466.40625,307632.34375,307725.6875,281551.78125,0.44384765625,0.884521484375,0.1962890625,-1.8920897245407104,-0.0915527269244194,0.6713866591453552,80.0,43273.0,1.0
21394.321696,307393.8125,307545.71875,308200.09375,307735.0625,307649.25,307815.53125,307923.375,282403.9375,0.443115234375,0.8857421875,0.195068359375,-1.9531248807907104,-0.1220703050494194,0.6408690810203552,80.0,43274.0,1.0
21394.3216997,307443.53125,307595.4375,308249.4375,307784.6875,307698.875,307865.0625,307970.3125,282206.0625,0.44287109375,0.887451171875,0.19384765625,-1.9531248807907104,-0.1220703050494194,0.6408690810203552,80.0,43275.0,1.0
21394.3217036,307262.75,307415.28125,308068.46875,307603.375,307518.71875,307684.65625,307779.34375,281128.53125,0.4443359375,0.88525390625,0.197265625,-1.9226073026657104,-0.2136230319738388,0.6713866591453552,80.0,43276.0,1.0
21394.3266666,307103.40625,307255.84375,307909.40625,307444.25,307359.21875,307525.25,307626.0,281026.09375,0.444580078125,0.883544921875,0.19775390625,-1.8615721464157104,-0.1525878757238388,0.5798339247703552,80.0,43277.0,1.0
21394.3266745,307203.375,307355.53125,308009.1875,307544.28125,307458.625,307624.65625,307731.9375,282324.625,0.443359375,0.884765625,0.196044921875,-1.8615721464157104,-0.2136230319738388,0.6103515028953552,80.0,43278.0,1.0
21394.3266787,307291.71875,307443.875,308097.90625,307632.78125,307547.21875,307713.1875,307821.34375,282450.0625,0.445068359375,0.88427734375,0.19677734375,-1.9836424589157104,-0.1831054538488388,0.6103515028953552,80.0,43279.0,1.0
21394.3266825,307150.0,307301.90625,307955.71875,307490.625,307405.53125,307571.46875,307673.46875,281560.65625,0.445068359375,0.8857421875,0.196044921875,-1.9836424589157104,-0.2441406100988388,0.5493163466453552,80.0,43280.0,1.0
21394.3266859,307048.53125,307200.5,307854.25,307389.15625,307303.875,307469.90625,307569.75,281382.375,0.4453125,0.884521484375,0.1953125,-1.8310545682907104,-0.2136230319738388,0.5493163466453552,80.0,43281.0,1.0
21394.3284701,307191.46875,307344.1875,307997.65625,307532.65625,307446.84375,307613.03125,307720.78125,282232.90625,0.446044921875,0.883544921875,0.198974609375,-1.8005369901657104,-0.0915527269244194,0.5798339247703552,80.0,43282.0,1.0
21394.3309666,307318.0,307470.0625,308124.0,307659.15625,307573.15625,307739.5625,307847.71875,282487.25,0.444580078125,0.88427734375,0.198486328125,-1.7700194120407104,-0.2441406100988388,0.4882812201976776,80.0,43283.0,1.0
21394.3347136,307203.8125,307356.15625,308009.46875,307545.0,307459.53125,307625.65625,307726.5,281651.3125,0.44482421875,0.88427734375,0.19873046875,-1.7395018339157104,-0.2136230319738388,0.3967284858226776,80.0,43284.0,1.0
21394.3465535,307067.375,307219.65625,307872.40625,307407.75,307322.90625,307488.84375,307582.46875,281257.375,0.44580078125,0.8857421875,0.197265625,-1.7700194120407104,-0.0915527269244194,0.3662109076976776,80.0,43285.0,1.0
21394.3465615,307176.375,307328.28125,307982.09375,307517.46875,307431.53125,307597.9375,307703.53125,282021.0,0.444091796875,0.886474609375,0.19775390625,-1.7700194120407104,-0.1831054538488388,0.4272460639476776,80.0,43286.0,1.0
21394.3490504,307335.6875,307487.96875,308142.0625,307677.21875,307591.125,307757.4375,307865.15625,282488.875,0.442626953125,0.884521484375,0.197509765625,-1.6784666776657104,-0.1831054538488388,0.4577636420726776,80.0,43287.0,1.0
21394.3490575,307259.25,307411.6875,308065.09375,307600.15625,307514.78125,307681.0625,307781.9375,281770.40625,0.442138671875,0.885009765625,0.19970703125,-1.8005369901657104,-0.2441406100988388,0.3356933295726776,80.0,43288.0,1.0
21394.3547842,307095.0,307247.1875,307899.6875,307434.9375,307350.53125,307516.65625,307602.75,281181.03125,0.44189453125,0.884765625,0.198974609375,-1.8005369901657104,-0.1220703050494194,0.3051757514476776,80.0,43289.0,1.0
21394.360968,307162.34375,307314.25,307967.90625,307503.15625,307417.59375,307583.625,307685.71875,281796.5,0.44189453125,0.886474609375,0.199951171875,-1.7395018339157104,-0.0610351525247097,0.4272460639476776,80.0,43290.0,1.0
21394.3653568,307342.40625,307495.03125,308149.3125,307684.21875,307598.28125,307764.21875,307872.84375,282449.625,0.443359375,0.885498046875,0.199951171875,-1.6174315214157104,-0.1525878757238388,0.3051757514476776,80.0,43291.0,1.0
21394.3653646,307314.6875,307467.65625,308121.21875,307656.03125,307570.3125,307736.40625,307839.0625,281909.5,0.442138671875,0.88525390625,0.19921875,-1.6784666776657104,-0.1831054538488388,0.3662109076976776,80.0,43292.0,1.0
21394.3734677,307117.90625,307270.59375,307923.375,307458.625,307373.78125,307539.8125,307632.34375,280940.875,0.4423828125,0.884765625,0.198486328125,-1.8310545682907104,-0.1525878757238388,0.3662109076976776,80.0,43293.0,1.0
21394.3765517,307035.75,307188.25,307841.375,307376.8125,307291.0,307457.375,307559.65625,281268.8125,0.443115234375,0.884521484375,0.19873046875,-1.8310545682907104,-0.1831054538488388,0.3051757514476776,80.0,43294.0,1.0
21394.376559,307180.3125,307332.84375,307986.75,307521.9375,307436.0,307602.3125,307710.21875,282435.59375,0.4423828125,0.885009765625,0.1962890625,-1.8920897245407104,-0.2136230319738388,0.5493163466453552,80.0,43295.0,1.0
21394.3847201,307212.9375,307365.5625,308019.46875,307554.84375,307468.71875,307634.59375,307742.6875,282201.4375,0.441650390625,0.8876953125,0.19873046875,-1.9531248807907104,-0.2746581733226776,0.5187987685203552,80.0,43296.0,1.0
21394.3870795,307033.84375,307186.375,307839.40625,307374.84375,307289.375,307455.3125,307554.46875,281327.375,0.441650390625,0.88671875,0.1982421875,-1.9226073026657104,-0.3051757514476776,0.3662109076976776,80.0,43297.0,1.0
21394.3947453,306977.625,307130.0625,307783.0,307318.4375,307233.3125,307399.0,307499.125,281419.46875,0.441650390625,0.88720703125,0.197509765625,-1.8920897245407104,-0.2441406100988388,0.4882812201976776,80.0,43298.0,1.0
21394.3972246,307162.25,307314.40625,307968.0625,307503.5,307417.5,307583.96875,307692.15625,282295.03125,0.4423828125,0.88720703125,0.197265625,-1.8310545682907104,-0.2136230319738388,0.5187987685203552,80.0,43299.0,1.0
21394.3997127,307254.59375,307406.96875,308060.53125,307596.125,307509.9375,307676.34375,307784.53125,282299.15625,0.4423828125,0.886474609375,0.198486328125,-1.8310545682907104,-0.1220703050494194,0.4882812201976776,80.0,43300.0,1.0
21394.4115476,307096.1875,307248.34375,307901.375,307436.90625,307351.15625,307517.375,307614.375,281409.375,0.442138671875,0.8857421875,0.197265625,-1.9836424589157104,-0.2746581733226776,0.6713866591453552,80.0,43301.0,1.0
21394.4115562,306982.53125,307135.0625,307787.8125,307322.90625,307237.96875,307403.90625,307496.1875,281224.125,0.440673828125,0.884765625,0.197021484375,-1.9226073026657104,-0.2746581733226776,0.7019042372703552,80.0,43302.0,1.0
21394.4140428,307148.5625,307301.28125,307954.5625,307490.09375,307403.8125,307570.125,307677.3125,282094.59375,0.44189453125,0.885009765625,0.199462890625,-1.8920897245407104,-0.2136230319738388,0.6103515028953552,80.0,43303.0,1.0
21394.41405,307290.46875,307443.15625,308096.8125,307631.90625,307545.4375,307711.90625,307820.375,282354.03125,0.44384765625,0.886962890625,0.198974609375,-1.8310545682907104,-0.2746581733226776,0.6103515028953552,80.0,43304.0,1.0
21394.4159653,307162.4375,307315.3125,307968.0625,307503.34375,307417.6875,307584.0625,307684.125,281488.3125,0.443115234375,0.884765625,0.19921875,-1.8615721464157104,-0.1831054538488388,0.5798339247703552,80.0,43305.0,1.0
21394.424728,306957.25,307109.6875,307762.875,307298.0625,307212.75,307379.0625,307475.4375,280762.15625,0.4423828125,0.884765625,0.199951171875,-1.7700194120407104,-0.3356933295726776,0.5798339247703552,80.0,43306.0,1.0
21394.4272302,306995.9375,307148.21875,307801.96875,307337.03125,307251.03125,307417.3125,307523.0,281767.28125,0.444091796875,0.884033203125,0.198486328125,-1.7700194120407104,-0.2441406100988388,0.4577636420726776,80.0,43307.0,1.0
21394.4309694,307156.0,307308.15625,307961.8125,307497.53125,307410.96875,307577.375,307685.90625,282477.25,0.444091796875,0.8837890625,0.1982421875,-1.8005369901657104,-0.1525878757238388,0.4577636420726776,80.0,43308.0,1.0
21394.4403582,307077.125,307229.3125,307883.03125,307418.65625,307333.0,307498.59375,307604.28125,281794.34375,0.4423828125,0.885498046875,0.19970703125,-1.8005369901657104,-0.1220703050494194,0.4272460639476776,80.0,43309.0,1.0
21394.4403663,306874.96875,307026.875,307680.375,307215.8125,307130.6875,307296.53125,307391.21875,281090.53125,0.44189453125,0.8837890625,0.200439453125,-1.8005369901657104,-0.2136230319738388,0.3967284858226776,80.0,43310.0,1.0
21394.4427958,306941.40625,307093.3125,307747.40625,307282.5,307196.59375,307362.78125,307467.40625,281682.59375,0.44287109375,0.883056640625,0.200439453125,-1.8310545682907104,-0.2136230319738388,0.4272460639476776,80.0,43311.0,1.0
21394.4428033,307146.78125,307299.03125,307953.3125,307488.59375,307402.40625,307568.59375,307676.96875,282383.71875,0.44287109375,0.884765625,0.200439453125,-1.8310545682907104,-0.2136230319738388,0.4577636420726776,80.0,43312.0,1.0
21394.4534682,307132.75,307285.1875,307938.9375,307474.375,307388.1875,307554.46875,307660.25,281920.59375,0.442626953125,0.8857421875,0.19775390625,-1.8615721464157104,-0.1220703050494194,0.4577636420726776,80.0,43313.0,1.0
21394.4559605,306899.125,307051.375,307704.59375,307239.84375,307154.5625,307321.125,307413.9375,280890.4375,0.442626953125,0.885009765625,0.198974609375,-1.8005369901657104,-0.1831054538488388,0.3967284858226776,80.0,43314.0,1.0
21394.4603557,306835.28125,306987.1875,307641.1875,307176.375,307090.53125,307256.84375,307358.40625,281175.46875,0.442626953125,0.886962890625,0.197265625,-1.8310545682907104,-0.2136230319738388,0.3967284858226776,80.0,43315.0,1.0
21394.4603635,307010.25,307162.25,307816.53125,307351.625,307265.5,307431.8125,307540.15625,282342.40625,0.44189453125,0.8857421875,0.197021484375,-1.8310545682907104,-0.2441406100988388,0.4882812201976776,80.0,43316.0,1.0
21394.4684681,307056.84375,307208.8125,307863.09375,307398.0,307311.90625,307478.5625,307586.3125,282168.53125,0.4423828125,0.886474609375,0.197021484375,-1.8615721464157104,-0.2136230319738388,0.4577636420726776,80.0,43317.0,1.0
21394.4709748,306847.0,306998.8125,307652.8125,307188.0,307102.15625,307268.375,307370.28125,281229.125,0.443115234375,0.885498046875,0.197021484375,-1.7395018339157104,-0.2136230319738388,0.4272460639476776,80.0,43318.0,1.0
21394.4734826,306801.21875,306952.78125,307607.125,307142.3125,307056.46875,307222.25,307326.9375,281379.96875,0.442138671875,0.885009765625,0.19580078125,-1.7089842557907104,-0.2136230319738388,0.5187987685203552,80.0,43319.0,1.0
21394.4822249,307005.34375,307156.625,307811.53125,307346.59375,307260.15625,307426.34375,307535.34375,282269.09375,0.44287109375,0.88525390625,0.19580078125,-1.7395018339157104,-0.1831054538488388,0.4882812201976776,80.0,43320.0,1.0
21394.4853605,307105.28125,307256.9375,307911.21875,307446.75,307360.28125,307526.59375,307634.9375,282286.0,0.44384765625,0.8857421875,0.1953125,-1.7700194120407104,-0.2136230319738388,0.5493163466453552,80.0,43321.0,1.0
21394.4853687,306914.0625,307065.875,307719.875,307254.78125,307169.125,307335.53125,307436.46875,281329.4375,0.443115234375,0.885986328125,0.19775390625,-1.8005369901657104,-0.1525878757238388,0.5187987685203552,80.0,43322.0,1.0
21394.4947488,306816.96875,306968.40625,307622.4375,307157.34375,307071.78125,307238.15625,307339.09375,281238.96875,0.443603515625,0.887451171875,0.198486328125,-1.8920897245407104,-0.1220703050494194,0.5187987685203552,80.0,43323.0,1.0
21394.4972182,307000.25,307151.96875,307806.875,307341.34375,307255.21875,307421.4375,307529.875,282124.96875,0.44384765625,0.886962890625,0.198974609375,-1.9226073026657104,-0.1220703050494194,0.5187987685203552,80.0,43324.0,1.0
21394.5009651,307142.9375,307294.84375,307949.65625,307484.03125,307397.84375,307564.5,307672.84375,282361.1875,0.4423828125,0.88671875,0.199462890625,-1.9531248807907104,-0.1220703050494194,0.6103515028953552,80.0,43325.0,1.0
21394.507813,306986.21875,307138.375,307792.03125,307327.125,307241.375,307407.65625,307508.875,281457.75,0.44384765625,0.88525390625,0.19873046875,-2.014159917831421,-0.03051757626235485,0.5493163466453552,80.0,43326.0,1.0
21394.507821,306845.03125,306997.125,307650.21875,307185.9375,307100.1875,307266.59375,307363.875,281143.90625,0.4443359375,0.884521484375,0.19775390625,-2.075195074081421,0.0,0.4882812201976776,80.0,43327.0,1.0
21394.5097135,306997.8125,307149.71875,307803.84375,307339.0,307253.09375,307419.125,307526.75,281977.1875,0.443603515625,0.8857421875,0.194580078125,-2.014159917831421,-0.0915527269244194,0.4272460639476776,80.0,43328.0,1.0
21394.5234683,307174.21875,307326.40625,307980.59375,307515.75,307429.84375,307595.59375,307704.5,282405.90625,0.443603515625,0.88427734375,0.198486328125,-1.9836424589157104,-0.1220703050494194,0.3356933295726776,80.0,43329.0,1.0
21394.5265434,307057.28125,307209.90625,307863.46875,307398.5625,307313.0625,307478.84375,307580.75,281603.125,0.44580078125,0.8837890625,0.197265625,-1.7700194120407104,-0.2136230319738388,0.3662109076976776,80.0,43330.0,1.0
21394.5265512,306881.6875,307033.78125,307686.875,307221.875,307137.125,307303.0625,307396.03125,281078.84375,0.44580078125,0.884521484375,0.19677734375,-1.8310545682907104,-0.1831054538488388,0.3967284858226776,80.0,43331.0,1.0
21394.5397127,306994.15625,307146.34375,307799.90625,307335.0625,307249.25,307415.34375,307521.40625,281806.34375,0.44482421875,0.884521484375,0.19775390625,-1.8615721464157104,-0.1525878757238388,0.3967284858226776,80.0,43332.0,1.0
21394.5434536,307194.0,307346.15625,307999.90625,307535.25,307448.78125,307615.375,307723.46875,282402.3125,0.445068359375,0.88427734375,0.19677734375,-1.8310545682907104,-0.1831054538488388,0.2441406100988388,80.0,43333.0,1.0
21394.5434611,307127.125,307279.09375,307932.5,307468.1875,307382.375,307548.3125,307650.78125,281751.4375,0.443603515625,0.88232421875,0.196533203125,-1.8005369901657104,-0.1831054538488388,0.4272460639476776,80.0,43334.0,1.0
21394.5434651,306925.75,307078.21875,307730.4375,307266.0625,307181.375,307347.3125,307435.65625,281048.4375,0.441650390625,0.884521484375,0.1962890625,-1.7700194120407104,-0.1220703050494194,0.4272460639476776,80.0,43335.0,1.0
21394.5465612,306989.25,307141.9375,307794.96875,307330.59375,307244.6875,307410.8125,307513.875,281625.8125,0.442138671875,0.886474609375,0.196533203125,-1.8005369901657104,-0.1220703050494194,0.3967284858226776,80.0,43336.0,1.0
21394.5465692,307198.90625,307351.625,308005.34375,307540.625,307454.59375,307620.90625,307729.34375,282354.75,0.441650390625,0.88623046875,0.1962890625,-1.8920897245407104,-0.1525878757238388,0.4272460639476776,80.0,43337.0,1.0
21394.5484627,307184.59375,307336.9375,307990.59375,307525.6875,307439.9375,307606.40625,307709.875,281896.375,0.44140625,0.886474609375,0.199951171875,-1.8310545682907104,-0.1831054538488388,0.3051757514476776,80.0,43338.0,1.0
21394.5572229,306971.53125,307123.8125,307776.28125,307311.65625,307227.15625,307393.0,307478.21875,281055.6875,0.443603515625,0.88916015625,0.197509765625,-1.7700194120407104,-0.1831054538488388,0.3051757514476776,80.0,43339.0,1.0
21394.5615719,306983.4375,307135.4375,307789.0,307323.96875,307238.96875,307404.71875,307503.34375,281447.0,0.443115234375,0.8876953125,0.19970703125,-1.7700194120407104,-0.2136230319738388,0.3967284858226776,80.0,43340.0,1.0
21394.5615799,307192.65625,307345.1875,307998.8125,307534.0,307448.09375,307614.1875,307722.28125,282258.03125,0.44091796875,0.886474609375,0.19775390625,-1.8310545682907104,-0.2746581733226776,0.5187987685203552,80.0,43341.0,1.0
21394.5697189,307231.8125,307384.25,308037.71875,307573.53125,307487.34375,307653.53125,307758.59375,281996.875,0.441162109375,0.885986328125,0.199951171875,-1.8310545682907104,-0.2136230319738388,0.5493163466453552,80.0,43342.0,1.0
21394.5727884,306996.84375,307149.0,307802.125,307337.9375,307252.5625,307418.21875,307515.5,280813.5625,0.4423828125,0.884521484375,0.19775390625,-1.9531248807907104,-0.1831054538488388,0.4882812201976776,80.0,43343.0,1.0
21394.5727946,306854.5,307006.84375,307659.78125,307195.40625,307109.9375,307275.71875,307377.71875,280986.125,0.442626953125,0.8837890625,0.195556640625,-1.8920897245407104,-0.2136230319738388,0.6408690810203552,80.0,43344.0,1.0
21394.5809647,306998.28125,307150.4375,307804.28125,307339.375,307253.625,307419.46875,307527.46875,282257.40625,0.443359375,0.884033203125,0.199462890625,-1.8615721464157104,-0.1220703050494194,0.6713866591453552,80.0,43345.0,1.0
21394.5834793,307077.3125,307229.3125,307883.5,307418.65625,307332.5625,307498.6875,307607.21875,282261.0625,0.44482421875,0.88427734375,0.197998046875,-1.8615721464157104,-0.2136230319738388,0.6103515028953552,80.0,43346.0,1.0
21394.5872132,306896.25,307048.34375,307701.90625,307237.15625,307151.6875,307317.46875,307422.15625,281330.59375,0.443359375,0.8828125,0.196044921875,-1.8310545682907104,-0.1525878757238388,0.5493163466453552,80.0,43347.0,1.0
21394.5974474,306833.84375,306985.9375,307639.6875,307175.03125,307089.46875,307255.0625,307360.90625,281393.46875,0.4423828125,0.883056640625,0.19921875,-1.8310545682907104,-0.1831054538488388,0.5493163466453552,80.0,43348.0,1.0
21394.597456,307014.09375,307166.1875,307820.09375,307355.625,307269.34375,307435.65625,307544.09375,282269.375,0.44287109375,0.8837890625,0.201416015625,-1.8005369901657104,-0.2746581733226776,0.4577636420726776,80.0,43349.0,1.0
21394.6022145,307113.59375,307265.78125,307920.15625,307455.3125,307368.96875,307535.34375,307643.53125,282309.0625,0.443603515625,0.8837890625,0.20068359375,-1.7700194120407104,-0.1220703050494194,0.6103515028953552,80.0,43350.0,1.0
21394.6049478,306953.65625,307106.28125,307759.84375,307295.1875,307209.1875,307375.3125,307479.0,281383.0,0.443115234375,0.884765625,0.19873046875,-1.8310545682907104,-0.1525878757238388,0.5798339247703552,80.0,43351.0,1.0
21394.6072297,306867.21875,307019.90625,307673.21875,307208.90625,307123.1875,307289.21875,307392.75,281309.0625,0.4423828125,0.88427734375,0.19482421875,-1.7700194120407104,-0.1220703050494194,0.3967284858226776,80.0,43352.0,1.0
21394.634718,307020.96875,307173.78125,307827.6875,307362.78125,307277.03125,307442.625,307551.53125,282157.53125,0.443115234375,0.88525390625,0.197509765625,-1.7089842557907104,0.03051757626235485,0.3967284858226776,80.0,43353.0,1.0
21394.6384535,307136.9375,307289.03125,307943.40625,307478.375,307392.46875,307558.5,307666.9375,282315.96875,0.443359375,0.88525390625,0.1982421875,-1.7089842557907104,-0.1525878757238388,0.3662109076976776,80.0,43354.0,1.0
21394.6384613,307001.40625,307153.03125,307806.59375,307342.03125,307256.9375,307422.78125,307524.0625,281419.75,0.443603515625,0.885498046875,0.1962890625,-1.7700194120407104,-0.1831054538488388,0.3051757514476776,80.0,43355.0,1.0
21394.6384654,306890.8125,307042.875,307696.09375,307231.34375,307146.59375,307312.28125,307411.0625,281183.09375,0.44287109375,0.88525390625,0.1982421875,-1.7395018339157104,-0.1525878757238388,0.3051757514476776,80.0,43356.0,1.0
21394.6409736,307018.65625,307170.84375,307824.5625,307359.46875,307274.28125,307440.03125,307547.5,281997.75,0.442626953125,0.885009765625,0.197265625,-1.7700194120407104,-0.0915527269244194,0.4272460639476776,80.0,43357.0,1.0
21394.6440565,307158.5,307310.65625,307964.84375,307499.59375,307414.1875,307579.96875,307688.3125,282332.84375,0.4423828125,0.88623046875,0.19482421875,-1.7700194120407104,-0.2136230319738388,0.3967284858226776,80.0,43358.0,1.0
21394.6440636,307052.90625,307204.71875,307858.46875,307393.53125,307308.25,307474.46875,307574.21875,281510.65625,0.4423828125,0.886474609375,0.19482421875,-1.7395018339157104,-0.2441406100988388,0.3356933295726776,80.0,43359.0,1.0
21394.6459622,306918.0625,307070.15625,307723.625,307258.625,307174.0625,307339.53125,307432.0625,281090.53125,0.440673828125,0.88623046875,0.1962890625,-1.7700194120407104,-0.2441406100988388,0.4272460639476776,80.0,43360.0,1.0
21394.6484608,307013.125,307164.75,307819.21875,307354.375,307269.0,307434.65625,307540.53125,281821.0,0.441650390625,0.8857421875,0.196533203125,-1.7089842557907104,-0.2136230319738388,0.5187987685203552,80.0,43361.0,1.0
21394.650971,307170.65625,307322.46875,307977.0,307512.375,307426.53125,307592.46875,307700.84375,282330.0,0.442138671875,0.885009765625,0.19970703125,-1.7395018339157104,-0.2441406100988388,0.5187987685203552,80.0,43362.0,1.0
21394.6534771,307103.0625,307255.5,307909.25,307444.25,307358.84375,307524.78125,307625.375,281630.5625,0.442138671875,0.885498046875,0.20068359375,-1.8005369901657104,-0.2441406100988388,0.5493163466453552,80.0,43363.0,1.0
21394.6559676,306949.375,307101.53125,307754.75,307289.46875,307205.0625,307370.84375,307457.8125,281037.34375,0.4443359375,0.8857421875,0.1982421875,-1.8005369901657104,-0.1525878757238388,0.7019042372703552,80.0,43364.0,1.0
21394.6597081,307010.25,307162.4375,307816.53125,307351.34375,307265.96875,307432.0,307534.53125,281637.28125,0.44384765625,0.885498046875,0.19921875,-1.9836424589157104,-0.1831054538488388,0.5798339247703552,80.0,43365.0,1.0
21394.6665554,307181.65625,307333.8125,307988.53125,307523.4375,307437.53125,307603.65625,307712.09375,282297.90625,0.442626953125,0.88330078125,0.1962890625,-1.9531248807907104,-0.2136230319738388,0.4882812201976776,80.0,43366.0,1.0
21394.6665633,307156.96875,307308.875,307962.78125,307498.0625,307412.3125,307578.25,307679.8125,281760.84375,0.44287109375,0.886474609375,0.19580078125,-1.9226073026657104,-0.1831054538488388,0.5187987685203552,80.0,43367.0,1.0
21394.6753558,306991.21875,307142.9375,307795.875,307331.0625,307246.75,307412.59375,307493.84375,281014.0,0.44287109375,0.885498046875,0.19677734375,-1.8920897245407104,-0.2136230319738388,0.4882812201976776,80.0,43368.0,1.0
21394.6753641,307007.5625,307159.375,307813.5,307348.46875,307263.09375,307428.9375,307526.21875,281437.4375,0.44189453125,0.8837890625,0.197021484375,-1.8615721464157104,-0.2136230319738388,0.5187987685203552,80.0,43369.0,1.0
21394.6772157,307183.78125,307335.96875,307990.59375,307525.5,307439.6875,307605.4375,307713.71875,282205.375,0.44140625,0.8828125,0.197509765625,-1.8005369901657104,-0.2136230319738388,0.4882812201976776,80.0,43370.0,1.0
21394.6859665,307203.71875,307355.46875,308009.90625,307544.71875,307459.15625,307625.28125,307728.5625,281840.65625,0.442138671875,0.8837890625,0.197021484375,-1.7700194120407104,-0.1525878757238388,0.4577636420726776,80.0,43371.0,1.0
21394.6890514,307001.125,307153.3125,307807.125,307342.21875,307256.9375,307422.78125,307519.34375,280704.3125,0.444580078125,0.88427734375,0.197021484375,-1.8005369901657104,-0.2441406100988388,0.4272460639476776,80.0,43372.0,1.0
21394.6890597,306863.0,307015.1875,307669.28125,307204.1875,307118.4375,307284.5625,307386.46875,280910.84375,0.4423828125,0.885009765625,0.1953125,-1.8310545682907104,-0.1525878757238388,0.4272460639476776,80.0,43373.0,1.0
21394.6909722,306970.65625,307122.625,307776.84375,307311.8125,307226.0,307391.84375,307499.9375,282177.65625,0.44287109375,0.88720703125,0.1953125,-1.9226073026657104,-0.03051757626235485,0.3967284858226776,80.0,43374.0,1.0
21394.7059719,307028.125,307179.6875,307834.59375,307369.65625,307283.75,307449.34375,307557.78125,282120.5,0.443359375,0.88720703125,0.19775390625,-1.8920897245407104,-0.1220703050494194,0.3051757514476776,80.0,43375.0,1.0
21394.7090455,306874.8125,307026.625,307680.90625,307216.0625,307130.34375,307296.1875,307397.21875,281214.09375,0.442626953125,0.885986328125,0.197021484375,-1.8615721464157104,-0.2136230319738388,0.3662109076976776,80.0,43376.0,1.0
21394.7090537,306809.96875,306962.15625,307615.90625,307151.0625,307065.6875,307231.53125,307333.5625,281228.15625,0.441162109375,0.8876953125,0.1962890625,-1.8615721464157104,-0.1831054538488388,0.3662109076976776,80.0,43377.0,1.0
21394.7109708,306963.125,307115.65625,307769.59375,307304.6875,307218.84375,307384.875,307493.0625,282089.03125,0.44287109375,0.887939453125,0.196533203125,-1.8615721464157104,-0.1525878757238388,0.4272460639476776,80.0,43378.0,1.0
21394.7134768,307062.03125,307214.5625,307868.28125,307403.65625,307317.53125,307483.75,307591.9375,282189.71875,0.439697265625,0.885986328125,0.197265625,-1.8005369901657104,-0.1831054538488388,0.4272460639476776,80.0,43379.0,1.0
21394.7172132,306926.5625,307078.5625,307732.125,307267.46875,307181.75,307347.78125,307447.375,281291.25,0.440673828125,0.886962890625,0.196533203125,-1.7700194120407104,-0.2746581733226776,0.4577636420726776,80.0,43380.0,1.0
21394.7265589,306827.875,306979.84375,307633.25,307168.78125,307083.125,307249.0625,307346.25,281091.625,0.441162109375,0.884765625,0.1962890625,-1.8310545682907104,-0.1220703050494194,0.4577636420726776,80.0,43381.0,1.0
21394.7265664,306956.875,307108.875,307763.0625,307298.59375,307212.3125,307377.90625,307485.90625,281917.375,0.441650390625,0.88525390625,0.199462890625,-1.8920897245407104,-0.1525878757238388,0.5798339247703552,80.0,43382.0,1.0
21394.7284717,307087.875,307240.125,307894.5,307429.46875,307343.5625,307509.40625,307618.21875,282233.34375,0.44287109375,0.883544921875,0.198486328125,-1.8615721464157104,-0.1220703050494194,0.5798339247703552,80.0,43383.0,1.0
21394.7422078,306981.1875,307133.46875,307786.84375,307322.09375,307236.71875,307402.75,307502.0,281401.875,0.4423828125,0.88134765625,0.2001953125,-1.8615721464157104,-0.1220703050494194,0.5493163466453552,80.0,43384.0,1.0
21394.7453526,306851.65625,307003.5625,307656.40625,307191.75,307106.8125,307272.65625,307363.875,280990.40625,0.441162109375,0.88330078125,0.197021484375,-1.8310545682907104,-0.2441406100988388,0.5493163466453552,80.0,43385.0,1.0
21394.7453603,306946.59375,307098.5,307752.5,307287.40625,307202.3125,307367.71875,307474.09375,281718.1875,0.443603515625,0.8837890625,0.202392578125,-1.7395018339157104,-0.3051757514476776,0.4882812201976776,80.0,43386.0,1.0
21394.7472174,307101.0,307253.1875,307907.09375,307442.0,307356.25,307522.1875,307631.375,282226.90625,0.446044921875,0.8837890625,0.202392578125,-1.8005369901657104,-0.1831054538488388,0.5187987685203552,80.0,43387.0,1.0
21394.7497292,307033.21875,307185.3125,307838.53125,307373.875,307288.3125,307454.34375,307553.65625,281517.71875,0.44384765625,0.8818359375,0.198974609375,-1.8310545682907104,-0.1525878757238388,0.4272460639476776,80.0,43388.0,1.0
21394.7584649,306882.65625,307034.65625,307686.875,307222.15625,307137.9375,307303.78125,307386.375,280918.0,0.444091796875,0.882568359375,0.201904296875,-1.7395018339157104,-0.2136230319738388,0.4577636420726776,80.0,43389.0,1.0
21394.7615433,306939.34375,307091.4375,307745.09375,307280.09375,307194.96875,307360.90625,307461.9375,281500.46875,0.444580078125,0.88427734375,0.199462890625,-1.6784666776657104,-0.1220703050494194,0.4272460639476776,80.0,43390.0,1.0
21394.7615508,307111.03125,307263.09375,307917.1875,307452.28125,307366.53125,307532.40625,307641.46875,282166.375,0.443603515625,0.88623046875,0.19873046875,-1.6479490995407104,-0.2136230319738388,0.4882812201976776,80.0,43391.0,1.0
21394.7697095,307084.90625,307237.15625,307890.90625,307426.1875,307340.6875,307506.28125,307608.5625,281601.25,0.44384765625,0.884765625,0.19970703125,-1.7089842557907104,-0.2136230319738388,0.4272460639476776,80.0,43392.0,1.0
21394.7871394,306882.03125,307034.40625,307687.6875,307222.96875,307137.9375,307303.15625,307399.625,280552.5,0.442138671875,0.88525390625,0.19580078125,-1.7089842557907104,-0.2441406100988388,0.4577636420726776,80.0,43393.0,1.0
21394.7871474,306785.5,306937.5625,307591.5,307126.65625,307040.84375,307206.78125,307309.84375,281014.09375,0.441650390625,0.88623046875,0.196044921875,-1.8310545682907104,-0.1831054538488388,0.3967284858226776,80.0,43394.0,1.0
21394.7871514,306913.0625,307065.0625,307719.4375,307254.96875,307168.6875,307334.625,307442.8125,282187.03125,0.442138671875,0.88525390625,0.19873046875,-1.8310545682907104,-0.1525878757238388,0.4577636420726776,80.0,43395.0,1.0
21394.7897027,306932.46875,307084.28125,307738.46875,307274.09375,307187.8125,307353.5625,307461.3125,281896.375,0.44140625,0.886962890625,0.194580078125,-1.8005369901657104,-0.2441406100988388,0.4577636420726776,80.0,43396.0,1.0
21394.7922166,306772.6875,306924.78125,307578.15625,307113.78125,307028.21875,307194.0,307293.5,281040.9375,0.443359375,0.88623046875,0.1962890625,-1.8310545682907104,-0.2441406100988388,0.3967284858226776,80.0,43397.0,1.0
21394.7947067,306744.4375,306896.71875,307549.8125,307085.71875,306999.71875,307165.5625,307268.8125,281242.96875,0.443115234375,0.8857421875,0.197998046875,-1.8310545682907104,-0.2746581733226776,0.4577636420726776,80.0,43398.0,1.0
21394.7972202,306911.46875,307063.71875,307717.1875,307252.90625,307166.53125,307332.46875,307441.1875,282098.53125,0.442138671875,0.886962890625,0.1953125,-1.8920897245407104,-0.1525878757238388,0.4882812201976776,80.0,43399.0,1.0
21394.8015563,306976.09375,307128.09375,307782.03125,307317.53125,307231.53125,307397.46875,307505.3125,281996.5,0.443115234375,0.888427734375,0.196533203125,-1.9226073026657104,-0.2746581733226776,0.6103515028953552,80.0,43400.0,1.0
21394.8015638,306825.0,306976.90625,307630.125,307165.71875,307080.09375,307246.375,307343.46875,281095.46875,0.4423828125,0.88671875,0.198486328125,-1.9226073026657104,-0.2746581733226776,0.5493163466453552,80.0,43401.0,1.0
21394.8109649,306754.625,306906.53125,307559.9375,307095.46875,307009.71875,307176.0,307274.28125,281081.4375,0.444580078125,0.884765625,0.197509765625,-1.9531248807907104,-0.1831054538488388,0.5493163466453552,80.0,43402.0,1.0
21394.814039,306905.65625,307057.90625,307711.75,307246.90625,307160.71875,307327.03125,307435.125,281945.46875,0.44677734375,0.88525390625,0.197998046875,-1.8920897245407104,-0.03051757626235485,0.5798339247703552,80.0,43403.0,1.0
21394.8140457,307007.9375,307160.5625,307814.1875,307349.375,307263.28125,307429.21875,307537.3125,282069.09375,0.446044921875,0.885986328125,0.197509765625,-1.8005369901657104,-0.1831054538488388,0.4882812201976776,80.0,43404.0,1.0
21394.8247165,306876.21875,307029.03125,307681.6875,307217.40625,307132.21875,307297.875,307393.53125,281176.71875,0.44482421875,0.885498046875,0.199462890625,-1.8310545682907104,-0.1220703050494194,0.4882812201976776,80.0,43405.0,1.0
21394.8277948,306771.53125,306924.34375,307576.75,307112.53125,307027.5,307193.375,307284.1875,280941.875,0.444091796875,0.885498046875,0.2001953125,-1.8005369901657104,-0.1525878757238388,0.4272460639476776,80.0,43406.0,1.0
21394.8278021,306896.4375,307048.6875,307702.34375,307237.875,307152.15625,307317.8125,307424.65625,281755.28125,0.443603515625,0.884765625,0.19677734375,-1.8005369901657104,-0.1220703050494194,0.4577636420726776,80.0,43407.0,1.0
21394.8347097,307030.625,307183.25,307837.1875,307372.34375,307286.53125,307452.28125,307560.90625,282093.4375,0.44384765625,0.88525390625,0.197021484375,-1.7395018339157104,-0.1525878757238388,0.3662109076976776,80.0,43408.0,1.0
21394.8377922,306927.5625,307080.15625,307733.5625,307268.375,307183.25,307349.03125,307446.5625,281235.5625,0.44482421875,0.885498046875,0.197265625,-1.7089842557907104,-0.1525878757238388,0.3051757514476776,80.0,43409.0,1.0
21394.8377999,306747.84375,306899.9375,307552.875,307088.3125,307003.375,307169.125,307263.28125,280499.03125,0.444580078125,0.88525390625,0.19921875,-1.7700194120407104,-0.0915527269244194,0.2746581733226776,80.0,43410.0,1.0
21394.8397105,306740.5,306892.40625,307546.53125,307081.6875,306996.40625,307161.96875,307267.3125,281410.53125,0.443603515625,0.885009765625,0.1943359375,-1.6784666776657104,-0.1831054538488388,0.2441406100988388,80.0,43411.0,1.0
21394.8484653,306875.25,307026.96875,307681.6875,307216.59375,307130.78125,307296.53125,307405.6875,282206.78125,0.442626953125,0.88818359375,0.19580078125,-1.6784666776657104,-0.1220703050494194,0.2746581733226776,80.0,43412.0,1.0
21394.8527921,306814.0,306965.8125,307620.0,307155.09375,307069.625,307235.1875,307341.6875,281525.40625,0.443359375,0.88818359375,0.195068359375,-1.7700194120407104,-0.1220703050494194,0.3662109076976776,80.0,43413.0,1.0
21394.8528006,306664.59375,306816.25,307469.71875,307005.0625,306919.78125,307085.4375,307185.75,280907.4375,0.43994140625,0.88525390625,0.196533203125,-1.8920897245407104,-0.0915527269244194,0.3356933295726776,80.0,43414.0,1.0
21394.8609585,306711.90625,306863.8125,307517.625,307052.90625,306967.53125,307133.1875,307239.84375,281471.15625,0.44091796875,0.88623046875,0.1943359375,-1.9531248807907104,-0.1220703050494194,0.5187987685203552,80.0,43415.0,1.0
21394.8640505,306883.9375,307036.28125,307690.375,307225.53125,307139.71875,307305.46875,307414.8125,282166.28125,0.441162109375,0.8837890625,0.1953125,-1.8615721464157104,-0.1525878757238388,0.4882812201976776,80.0,43416.0,1.0
21394.8640576,306867.375,307019.65625,307673.5625,307209.09375,307123.09375,307289.03125,307395.78125,281660.96875,0.442626953125,0.886474609375,0.197021484375,-1.9226073026657104,-0.2746581733226776,0.4882812201976776,80.0,43417.0,1.0
21394.867213,306709.125,306860.59375,307514.15625,307049.5,306964.375,307130.34375,307226.8125,280907.15625,0.4423828125,0.88623046875,0.19775390625,-1.9531248807907104,-0.2441406100988388,0.6103515028953552,80.0,43418.0,1.0
21394.8809649,306717.71875,306869.25,307523.375,307058.53125,306973.15625,307138.90625,307242.8125,281291.53125,0.441650390625,0.88623046875,0.198974609375,-1.9836424589157104,-0.2441406100988388,0.6408690810203552,80.0,43419.0,1.0
21394.884045,306893.75,307045.3125,307699.84375,307235.125,307149.1875,307314.96875,307423.75,282103.15625,0.440185546875,0.88671875,0.201171875,-1.9226073026657104,-0.1831054538488388,0.7019042372703552,80.0,43420.0,1.0
21394.8840507,306920.9375,307072.9375,307727.125,307262.375,307176.71875,307342.5,307449.40625,281806.4375,0.43994140625,0.885498046875,0.200439453125,-1.9531248807907104,-0.1525878757238388,0.4577636420726776,80.0,43421.0,1.0
21394.8859697,306761.71875,306913.6875,307567.15625,307102.15625,307017.5,307183.15625,307277.3125,280953.65625,0.4404296875,0.884765625,0.20263671875,-1.9531248807907104,-0.1220703050494194,0.4882812201976776,80.0,43422.0,1.0
21394.888479,306731.3125,306882.84375,307536.59375,307071.84375,306986.46875,307152.84375,307251.65625,281127.8125,0.442626953125,0.885498046875,0.199462890625,-1.8920897245407104,-0.2136230319738388,0.5187987685203552,80.0,43423.0,1.0
21394.8972144,306900.71875,307052.46875,307706.5625,307242.0,307156.0,307322.28125,307430.75,281994.28125,0.442138671875,0.88427734375,0.20068359375,-1.9226073026657104,-0.1525878757238388,0.5187987685203552,80.0,43424.0,1.0
21394.9003464,306967.78125,307119.59375,307773.78125,307309.21875,307223.3125,307389.53125,307496.53125,281913.90625,0.44091796875,0.883544921875,0.201904296875,-1.8615721464157104,-0.0915527269244194,0.4577636420726776,80.0,43425.0,1.0
21394.9003522,306817.40625,306968.84375,307622.25,307157.34375,307072.40625,307238.59375,307330.34375,281014.71875,0.441162109375,0.8828125,0.2021484375,-1.8615721464157104,-0.1831054538488388,0.5187987685203552,80.0,43426.0,1.0
21394.905956,306742.125,306894.21875,307547.15625,307082.40625,306997.75,307163.59375,307255.78125,280965.375,0.442626953125,0.884033203125,0.20166015625,-1.9226073026657104,-0.1525878757238388,0.4577636420726776,80.0,43427.0,1.0
21394.9165571,306890.71875,307042.875,307696.8125,307232.15625,307146.40625,307312.4375,307419.90625,281829.6875,0.443359375,0.884521484375,0.19970703125,-1.8615721464157104,-0.1525878757238388,0.4272460639476776,80.0,43428.0,1.0
21394.9165653,306996.21875,307148.21875,307802.5,307337.75,307251.90625,307418.125,307525.59375,281970.40625,0.44140625,0.884765625,0.199462890625,-1.8310545682907104,-0.1831054538488388,0.5187987685203552,80.0,43429.0,1.0
21394.91846,306859.875,307011.78125,307665.25,307200.34375,307115.21875,307281.4375,307378.34375,280968.25,0.440673828125,0.88623046875,0.19921875,-1.8005369901657104,-0.2746581733226776,0.5187987685203552,80.0,43430.0,1.0
21394.9222076,306670.78125,306822.9375,307476.5,307011.40625,306926.5625,307092.25,307190.84375,280418.21875,0.44091796875,0.887451171875,0.19970703125,-1.8615721464157104,-0.1831054538488388,0.4577636420726776,80.0,43431.0,1.0
21394.9340495,306699.9375,306852.53125,307506.1875,307041.71875,306955.90625,307121.46875,307227.78125,281585.15625,0.441162109375,0.887451171875,0.195556640625,-1.8310545682907104,-0.2136230319738388,0.5493163466453552,80.0,43432.0,1.0
21394.9340584,306822.59375,306974.9375,307628.40625,307163.59375,307078.03125,307243.875,307352.875,282130.625,0.442138671875,0.887451171875,0.19873046875,-1.7700194120407104,-0.2136230319738388,0.5798339247703552,80.0,43433.0,1.0
21394.9365381,306730.40625,306882.59375,307535.6875,307070.96875,306986.125,307151.53125,307256.84375,281330.59375,0.440673828125,0.886474609375,0.198486328125,-1.8005369901657104,-0.1831054538488388,0.5493163466453552,80.0,43434.0,1.0
21394.9365453,306595.40625,306747.65625,307400.53125,306936.0625,306851.03125,307016.59375,307116.375,280854.5,0.443603515625,0.88427734375,0.1953125,-1.7089842557907104,-0.2746581733226776,0.5187987685203552,80.0,43435.0,1.0
21394.944714,306677.84375,306829.84375,307483.65625,307019.09375,306932.90625,307098.9375,307205.875,281545.09375,0.442626953125,0.885009765625,0.1982421875,-1.7395018339157104,-0.2441406100988388,0.5187987685203552,80.0,43436.0,1.0
21394.9471986,306835.5625,306987.71875,307641.65625,307176.71875,307091.09375,307257.28125,307365.75,282097.71875,0.441162109375,0.884521484375,0.197998046875,-1.8310545682907104,-0.2746581733226776,0.5187987685203552,80.0,43437.0,1.0
21394.9509768,306781.8125,306934.625,307588.1875,307123.4375,307037.96875,307204.09375,307308.15625,281438.0625,0.441162109375,0.886962890625,0.19775390625,-1.7700194120407104,-0.2746581733226776,0.5187987685203552,80.0,43438.0,1.0
21394.9603448,306626.0625,306778.6875,307431.8125,306967.0625,306882.21875,307048.0625,307141.5,280785.21875,0.44189453125,0.88525390625,0.19580078125,-1.7089842557907104,-0.1831054538488388,0.5798339247703552,80.0,43439.0,1.0
21394.9603511,306668.71875,306821.25,307474.53125,307010.25,306924.25,307090.4375,307194.25,281316.03125,0.443359375,0.88427734375,0.196044921875,-1.7395018339157104,-0.2441406100988388,0.4272460639476776,80.0,43440.0,1.0
21394.9627883,306842.09375,306994.0625,307648.0,307183.71875,307097.25,307263.46875,307372.53125,282027.25,0.44384765625,0.8857421875,0.194580078125,-1.7700194120407104,-0.2746581733226776,0.5187987685203552,80.0,43441.0,1.0
21394.9627958,306831.53125,306983.6875,307637.34375,307172.78125,307087.21875,307253.4375,307357.78125,281553.40625,0.444091796875,0.884765625,0.196044921875,-1.7700194120407104,-0.2441406100988388,0.4272460639476776,80.0,43442.0,1.0
21394.9684574,306667.03125,306819.1875,307471.875,307007.40625,306922.8125,307089.125,307175.75,280763.6875,0.443603515625,0.887451171875,0.197021484375,-1.7700194120407104,-0.2136230319738388,0.4577636420726776,80.0,43443.0,1.0
21394.9722258,306664.0625,306816.40625,307469.71875,307005.25,306919.96875,307085.96875,307183.25,281094.46875,0.444580078125,0.88671875,0.195556640625,-1.7089842557907104,-0.1831054538488388,0.4577636420726776,80.0,43444.0,1.0
21394.9859546,306838.9375,306991.3125,307645.5,307180.40625,307094.75,307260.9375,307368.96875,281916.3125,0.445556640625,0.885498046875,0.195068359375,-1.6784666776657104,-0.1220703050494194,0.5493163466453552,80.0,43445.0,1.0
21394.9890359,306874.1875,307026.53125,307680.53125,307215.71875,307130.0625,307296.34375,307401.21875,281662.03125,0.447021484375,0.8876953125,0.195556640625,-1.7395018339157104,-0.2746581733226776,0.4272460639476776,80.0,43446.0,1.0
21394.9890429,306713.4375,306865.59375,307518.25,307053.71875,306969.3125,307135.5,307219.03125,280791.125,0.446044921875,0.887451171875,0.196044921875,-1.8310545682907104,-0.1525878757238388,0.3051757514476776,80.0,43447.0,1.0
21394.9909727,306666.5625,306818.75,307471.59375,307006.9375,306922.375,307088.21875,307177.28125,280898.6875,0.443115234375,0.886474609375,0.19580078125,-1.9531248807907104,-0.1525878757238388,0.3662109076976776,80.0,43448.0,1.0
21394.9947129,306835.09375,306987.625,307641.75,307176.90625,307091.15625,307256.9375,307364.5,281775.3125,0.443115234375,0.88720703125,0.19482421875,-1.9531248807907104,-0.1525878757238388,0.3967284858226776,80.0,43449.0,1.0
21394.9984607,306916.28125,307068.5625,307722.84375,307258.09375,307172.09375,307338.1875,307444.59375,281762.0,0.44384765625,0.888916015625,0.1943359375,-1.8615721464157104,-0.1220703050494194,0.3967284858226776,80.0,43450.0,1.0
21395.0165392,306759.75,306912.09375,307565.28125,307100.5625,307015.4375,307181.375,307278.03125,280692.5,0.4453125,0.887451171875,0.196533203125,-1.8310545682907104,-0.1525878757238388,0.5187987685203552,80.0,43451.0,1.0
21395.0165476,306573.21875,306725.3125,307378.4375,306913.96875,306828.9375,306994.53125,307095.46875,280347.40625,0.445068359375,0.887939453125,0.19384765625,-1.8310545682907104,-0.1525878757238388,0.4577636420726776,80.0,43452.0,1.0
21395.0190393,306632.0625,306784.15625,307437.8125,306973.5,306887.6875,307053.71875,307160.1875,281621.4375,0.4423828125,0.8876953125,0.1953125,-1.9836424589157104,-0.1220703050494194,0.3662109076976776,80.0,43453.0,1.0
21395.0190467,306748.84375,306901.0,307555.28125,307090.71875,307004.4375,307170.65625,307279.09375,282014.75,0.441650390625,0.886962890625,0.195068359375,-1.8615721464157104,-0.2746581733226776,0.3967284858226776,80.0,43454.0,1.0
21395.0215752,306638.78125,306790.75,307445.21875,306980.125,306894.65625,307059.96875,307165.375,281195.96875,0.443359375,0.886962890625,0.1982421875,-1.8310545682907104,-0.2136230319738388,0.3967284858226776,80.0,43455.0,1.0
21395.0215829,306482.9375,306635.0,307288.75,306824.03125,306739.0,306904.21875,307001.5,280708.5,0.44189453125,0.885498046875,0.199951171875,-1.9226073026657104,-0.1220703050494194,0.4882812201976776,80.0,43456.0,1.0
21395.039708,306570.1875,306722.46875,307376.28125,306911.71875,306826.15625,306991.75,307097.96875,281380.59375,0.438720703125,0.8779296875,0.19775390625,-1.9226073026657104,-0.1220703050494194,0.5493163466453552,80.0,43457.0,1.0
21395.0452246,306757.78125,306909.84375,307563.875,307099.46875,307013.65625,307179.40625,307288.3125,281977.1875,0.44091796875,0.884033203125,0.199951171875,-1.8310545682907104,-0.2136230319738388,0.4577636420726776,80.0,43458.0,1.0
21395.0452333,306718.78125,306871.0625,307524.96875,307060.15625,306974.59375,307140.0625,307246.28125,281400.78125,0.443603515625,0.886474609375,0.198974609375,-1.8615721464157104,-0.1831054538488388,0.6103515028953552,80.0,43459.0,1.0
21395.0452372,306455.75,306608.09375,307261.65625,306796.46875,306711.90625,306877.3125,306977.8125,280219.625,0.439453125,0.881103515625,0.197021484375,-1.8005369901657104,-0.1220703050494194,0.6103515028953552,80.0,43460.0,1.0
21395.045241,306352.65625,306504.84375,307158.84375,306693.9375,306608.375,306774.3125,306878.375,280562.5,0.445068359375,0.897216796875,0.203369140625,-1.7700194120407104,-0.1220703050494194,0.7934569716453552,80.0,43461.0,1.0
21395.0477869,306523.6875,306675.875,307329.875,306865.40625,306779.125,306945.25,307053.15625,281799.8125,0.445556640625,0.88427734375,0.19970703125,-1.9531248807907104,-0.1831054538488388,0.7629393935203552,80.0,43462.0,1.0
21395.0477941,306567.34375,306719.15625,307373.25,306908.78125,306822.5,306988.875,307096.8125,281628.25,0.443115234375,0.889892578125,0.20361328125,-1.9531248807907104,-0.0915527269244194,0.7019042372703552,80.0,43463.0,1.0
21395.0584529,306373.9375,306525.65625,307179.9375,306715.3125,306629.75,306795.6875,306898.6875,280777.1875,0.4443359375,0.88671875,0.199951171875,-1.9531248807907104,-0.1831054538488388,0.7019042372703552,80.0,43464.0,1.0
21395.0627939,306347.5625,306499.46875,307153.75,306688.84375,306603.28125,306769.3125,306874.09375,281006.0625,0.44580078125,0.884521484375,0.199462890625,-1.8310545682907104,-0.1525878757238388,0.4577636420726776,80.0,43465.0,1.0
21395.0628014,306568.9375,306720.75,307374.9375,306910.125,306824.1875,306990.40625,307099.03125,281948.5,0.440185546875,0.879638671875,0.202880859375,-1.7395018339157104,-0.2136230319738388,0.3356933295726776,80.0,43466.0,1.0
21395.0715546,306657.90625,306809.8125,307464.0,306999.09375,306913.25,307079.28125,307187.90625,281910.6875,0.439208984375,0.878662109375,0.19873046875,-1.5869139432907104,-0.4272460639476776,0.3356933295726776,80.0,43467.0,1.0
21395.0715604,306462.90625,306614.8125,307268.8125,306803.90625,306718.15625,306884.28125,306987.375,280945.34375,0.43994140625,0.880126953125,0.1962890625,-1.4038084745407104,-0.3662109076976776,0.2136230319738388,80.0,43468.0,1.0
21395.0777884,306356.6875,306508.5,307162.34375,306697.59375,306611.84375,306778.0625,306879.90625,280811.78125,0.43994140625,0.8828125,0.1962890625,-1.3427733182907104,-0.4577636420726776,0.2441406100988388,80.0,43469.0,1.0
21395.0777968,306537.375,306689.28125,307343.46875,306878.8125,306793.0,306958.9375,307067.21875,281671.5,0.443359375,0.8876953125,0.1953125,-1.4343260526657104,-0.4272460639476776,0.3051757514476776,80.0,43470.0,1.0
21395.0884602,306660.75,306812.65625,307467.03125,307002.3125,306916.5625,307082.40625,307191.125,281811.0625,0.44482421875,0.89111328125,0.194580078125,-1.6479490995407104,-0.2441406100988388,0.4272460639476776,80.0,43471.0,1.0
21395.0927887,306501.15625,306652.8125,307306.71875,306842.15625,306756.59375,306922.1875,307022.3125,280915.21875,0.44384765625,0.89111328125,0.19677734375,-2.075195074081421,-0.1525878757238388,0.4882812201976776,80.0,43472.0,1.0
21395.0927966,306361.875,306513.59375,307166.8125,306702.0625,306617.125,306782.90625,306876.9375,280619.8125,0.4462890625,0.891357421875,0.197509765625,-2.197265386581421,-0.1220703050494194,0.6103515028953552,80.0,43473.0,1.0
