Time,FZ,C3,CZ,C4,PZ,PO7,OZ,PO8,AccX,AccY,AccZ,Gyro1,Gyro2,Gyro3,Battery,Counter,Validation
2255.1652788,26420.2109375,10417.701171875,-270969.84375,-261196.15625,-238621.515625,-285096.15625,-258588.421875,-418088.40625,0.39892578125,0.725341796875,0.5517578125,-2.014159917831421,-0.2746581733226776,0.7019042372703552,66.66667175292969,85150.0,1.0
2255.1696077,3461.659423828125,9871.4248046875,-272157.0,-262084.140625,-239406.0625,-281552.78125,-254148.375,-418574.78125,0.39697265625,0.723388671875,0.55322265625,-2.014159917831421,-0.2746581733226776,0.6103515028953552,66.66667175292969,85151.0,1.0
2255.1696142,-6562.38330078125,5837.29248046875,-272478.25,-262433.8125,-240713.1875,-279508.5625,-251903.640625,-418695.3125,0.39697265625,0.72265625,0.55029296875,-1.8920897245407104,-0.3356933295726776,0.6103515028953552,66.66667175292969,85152.0,1.0
2255.1777745,14515.6708984375,5897.46337890625,-271385.59375,-261639.34375,-240113.71875,-282670.1875,-255904.78125,-418276.625,0.39697265625,0.722900390625,0.550048828125,-1.9836424589157104,-0.3051757514476776,0.6713866591453552,66.66667175292969,85153.0,1.0
2255.1808729,27752.642578125,9853.185546875,-270880.625,-261146.53125,-238726.65625,-285256.90625,-258828.03125,-418072.0625,0.397216796875,0.72265625,0.553955078125,-1.8310545682907104,-0.2441406100988388,0.6103515028953552,66.66667175292969,85154.0,1.0
2255.1808791,8428.9326171875,10313.2744140625,-271951.53125,-261919.453125,-239161.0,-282342.15625,-255093.671875,-418514.1875,0.397705078125,0.72265625,0.5517578125,-1.9226073026657104,-0.3356933295726776,0.6408690810203552,66.66667175292969,85155.0,1.0
2255.18903,-7517.69677734375,6227.73291015625,-272574.0,-262490.21875,-240607.0625,-279455.8125,-251782.75,-418757.28125,0.39892578125,0.721923828125,0.553955078125,-1.9226073026657104,-0.2136230319738388,0.6103515028953552,66.66667175292969,85156.0,1.0
2255.1933614,9841.1162109375,5287.79736328125,-271622.625,-261828.703125,-240364.953125,-281922.84375,-254990.6875,-418395.09375,0.3984375,0.722412109375,0.55224609375,-1.9531248807907104,-0.3051757514476776,0.7629393935203552,66.66667175292969,85157.0,1.0
2255.1933674,27626.48828125,9178.1630859375,-270840.9375,-261137.671875,-238893.125,-285234.75,-258847.875,-418075.4375,0.3984375,0.724609375,0.550048828125,-1.9531248807907104,-0.2441406100988388,0.7324218153953552,66.66667175292969,85158.0,1.0
2255.1951493,12948.544921875,10687.173828125,-271727.125,-261745.28125,-238941.859375,-283128.03125,-256052.390625,-418442.46875,0.39892578125,0.72509765625,0.554931640625,-1.9836424589157104,-0.2746581733226776,0.7019042372703552,66.66667175292969,85159.0,1.0
2255.2028069,-7801.83203125,7108.48095703125,-272621.03125,-262509.375,-240428.25,-279565.09375,-251863.578125,-418802.0625,0.398193359375,0.721923828125,0.553466796875,-1.9226073026657104,-0.2746581733226776,0.7019042372703552,66.66667175292969,85160.0,1.0
2255.2052843,5408.13916015625,5212.248046875,-271863.5625,-262016.90625,-240562.453125,-281204.28125,-254103.046875,-418515.25,0.399169921875,0.720947265625,0.55224609375,-2.075195074081421,-0.2746581733226776,0.7324218153953552,66.66667175292969,85161.0,1.0
2255.2143913,26726.607421875,8442.1650390625,-270874.71875,-261189.71875,-239114.859375,-284997.53125,-258608.984375,-418116.59375,0.39892578125,0.722900390625,0.551513671875,-1.9226073026657104,-0.3051757514476776,0.5493163466453552,66.66667175292969,85162.0,1.0
2255.2171231,17612.28125,10830.76171875,-271519.09375,-261590.96875,-238783.421875,-283829.34375,-256924.46875,-418383.90625,0.399169921875,0.72119140625,0.552001953125,-2.014159917831421,-0.2441406100988388,0.5798339247703552,66.66667175292969,85163.0,1.0
2255.2171299,-6242.84228515625,7740.4990234375,-272599.5625,-262473.875,-240214.65625,-279891.15625,-252207.34375,-418819.125,0.398193359375,0.721435546875,0.54931640625,-1.8920897245407104,-0.3662109076976776,0.7019042372703552,66.66667175292969,85164.0,1.0
2255.2190399,1258.7608642578125,4873.8427734375,-272084.125,-262180.0625,-240720.609375,-280603.375,-253337.453125,-418621.71875,0.39794921875,0.72119140625,0.550048828125,-1.9226073026657104,-0.3051757514476776,0.6713866591453552,66.66667175292969,85165.0,1.0
2255.2327795,24427.23828125,7654.4892578125,-270955.1875,-261272.59375,-239379.859375,-284595.03125,-258158.453125,-418170.03125,0.3984375,0.722412109375,0.552734375,-1.9531248807907104,-0.2441406100988388,0.6408690810203552,66.66667175292969,85166.0,1.0
2255.2358614,21197.14453125,10829.0634765625,-271323.1875,-261448.640625,-238686.875,-284440.09375,-257693.0,-418325.625,0.398193359375,0.720703125,0.555419921875,-1.8920897245407104,-0.2441406100988388,0.6408690810203552,66.66667175292969,85167.0,1.0
2255.2358675,-4066.85546875,8554.99609375,-272520.25,-262395.71875,-239963.875,-280385.84375,-252760.421875,-418812.15625,0.39794921875,0.72265625,0.5546875,-1.8920897245407104,-0.3051757514476776,0.6713866591453552,66.66667175292969,85168.0,1.0
2255.2377744,-2375.6328125,5142.33203125,-272280.65625,-262320.0,-240805.640625,-280109.5625,-252696.671875,-418716.21875,0.39794921875,0.72265625,0.553466796875,-1.9226073026657104,-0.2441406100988388,0.7629393935203552,66.66667175292969,85169.0,1.0
2255.2415457,21518.115234375,6894.35107421875,-271097.15625,-261401.421875,-239666.140625,-284032.84375,-257506.328125,-418250.5,0.39794921875,0.722900390625,0.55322265625,-1.9531248807907104,-0.3051757514476776,0.6408690810203552,66.66667175292969,85170.0,1.0
2255.2552792,24490.271484375,10558.517578125,-271157.875,-261335.453125,-238661.75,-284910.28125,-258299.09375,-418280.09375,0.39794921875,0.723388671875,0.555908203125,-1.8920897245407104,-0.3356933295726776,0.5798339247703552,66.66667175292969,85171.0,1.0
2255.2583537,-245.77980041503906,9175.48046875,-272384.28125,-262276.8125,-239698.515625,-281026.8125,-253501.15625,-418781.0625,0.39794921875,0.722900390625,0.5537109375,-1.9226073026657104,-0.4272460639476776,0.5798339247703552,66.66667175292969,85172.0,1.0
2255.2583583,-5138.39794921875,5167.09765625,-272448.65625,-262435.15625,-240826.5625,-279764.625,-252226.75,-418801.53125,0.39892578125,0.724365234375,0.551513671875,-1.9226073026657104,-0.2441406100988388,0.6103515028953552,66.66667175292969,85173.0,1.0
2255.2602753,17531.904296875,6147.17724609375,-271284.21875,-261561.46875,-239955.28125,-283359.5,-256707.296875,-418349.75,0.398681640625,0.72412109375,0.551513671875,-1.8920897245407104,-0.3356933295726776,0.6408690810203552,66.66667175292969,85174.0,1.0
2255.2627901,26318.287109375,10204.5556640625,-271028.59375,-261253.453125,-238705.109375,-285215.78125,-258712.609375,-418248.0,0.397216796875,0.72509765625,0.55322265625,-1.8920897245407104,-0.1220703050494194,0.6408690810203552,66.66667175292969,85175.0,1.0
2255.2665307,3784.86572265625,9819.8369140625,-272201.53125,-262126.4375,-239433.328125,-281768.34375,-254377.53125,-418730.625,0.3994140625,0.72216796875,0.55126953125,-1.9226073026657104,-0.1525878757238388,0.6103515028953552,66.66667175292969,85176.0,1.0
2255.2752784,-7380.9931640625,5656.869140625,-272577.03125,-262516.96875,-240769.96875,-279566.4375,-251934.125,-418872.53125,0.397705078125,0.723388671875,0.552490234375,-1.9531248807907104,-0.2441406100988388,0.6713866591453552,66.66667175292969,85177.0,1.0
2255.2783533,13007.9111328125,5577.744140625,-271505.75,-261743.40625,-240229.5,-282617.15625,-255811.34375,-418461.96875,0.398193359375,0.723876953125,0.55224609375,-1.9531248807907104,-0.2746581733226776,0.6408690810203552,66.66667175292969,85178.0,1.0
2255.2783588,27155.046875,9639.0556640625,-270949.375,-261213.046875,-238821.34375,-285344.15625,-258913.859375,-418236.5625,0.3994140625,0.723876953125,0.552734375,-1.9226073026657104,-0.2441406100988388,0.5798339247703552,66.66667175292969,85179.0,1.0
2255.2840265,8319.587890625,10294.23046875,-271990.53125,-261958.609375,-239190.3125,-282558.4375,-255327.828125,-418666.15625,0.399169921875,0.722900390625,0.5537109375,-1.8920897245407104,-0.2441406100988388,0.6103515028953552,66.66667175292969,85180.0,1.0
2255.2933511,-8451.8212890625,6389.5595703125,-272661.15625,-262563.4375,-240648.453125,-279542.71875,-251850.4375,-418928.84375,0.39990234375,0.722900390625,0.55126953125,-1.8920897245407104,-0.2746581733226776,0.5798339247703552,66.66667175292969,85181.0,1.0
2255.2933572,8619.1904296875,5286.36669921875,-271743.65625,-261932.5,-240474.5625,-281878.03125,-254903.6875,-418581.5,0.396484375,0.722412109375,0.5517578125,-1.8310545682907104,-0.2136230319738388,0.5798339247703552,66.66667175292969,85182.0,1.0
2255.2958597,27307.484375,8927.64453125,-270923.375,-261216.453125,-239002.390625,-285291.59375,-258895.0,-418248.46875,0.398193359375,0.72412109375,0.552978515625,-1.8920897245407104,-0.1831054538488388,0.7019042372703552,66.66667175292969,85183.0,1.0
2255.2958657,13454.1416015625,10591.240234375,-271769.875,-261789.359375,-238982.984375,-283340.65625,-256283.140625,-418599.1875,0.397705078125,0.720703125,0.5517578125,-1.9226073026657104,-0.2746581733226776,0.6103515028953552,66.66667175292969,85184.0,1.0
2255.3065308,-8013.01123046875,7067.443359375,-272702.5625,-262578.90625,-240463.46875,-279684.71875,-251970.875,-418973.53125,0.398193359375,0.72119140625,0.55322265625,-1.9531248807907104,-0.2441406100988388,0.5798339247703552,66.66667175292969,85185.0,1.0
2255.3092163,4130.6025390625,4940.89794921875,-271983.0,-262118.5625,-240662.40625,-281165.75,-254023.03125,-418700.21875,0.39892578125,0.72216796875,0.553955078125,-1.9226073026657104,-0.2441406100988388,0.5493163466453552,66.66667175292969,85186.0,1.0
2255.3115421,25962.71484375,8207.0244140625,-270959.65625,-261268.390625,-239223.671875,-285015.6875,-258610.59375,-418286.375,0.401123046875,0.72216796875,0.554443359375,-1.9836424589157104,-0.2746581733226776,0.6408690810203552,66.66667175292969,85187.0,1.0
2255.314024,17674.240234375,10760.3984375,-271558.59375,-261632.359375,-238827.421875,-284023.09375,-257135.46875,-418535.4375,0.399169921875,0.722900390625,0.552734375,-2.014159917831421,-0.3051757514476776,0.6103515028953552,66.66667175292969,85188.0,1.0
2255.3227702,-6577.76123046875,7842.69091796875,-272666.1875,-262532.34375,-240239.59375,-280044.46875,-252356.21875,-418982.75,0.39892578125,0.723388671875,0.55615234375,-1.9531248807907104,-0.3662109076976776,0.5493163466453552,66.66667175292969,85189.0,1.0
2255.3258847,186.1453399658203,4973.35302734375,-272198.75,-262276.625,-240807.6875,-280586.28125,-253282.296875,-418803.5,0.397216796875,0.72314453125,0.553466796875,-1.9836424589157104,-0.2136230319738388,0.5798339247703552,66.66667175292969,85190.0,1.0
2255.3258921,23854.408203125,7416.041015625,-271053.8125,-261361.640625,-239495.734375,-284586.90625,-258126.265625,-418346.53125,0.397216796875,0.721435546875,0.554931640625,-1.9531248807907104,-0.2441406100988388,0.6713866591453552,66.66667175292969,85191.0,1.0
2255.3390304,21701.310546875,10674.12109375,-271367.0,-261494.328125,-238742.75,-284609.15625,-257876.109375,-418478.5,0.39794921875,0.72216796875,0.556396484375,-1.9531248807907104,-0.1831054538488388,0.6103515028953552,66.66667175292969,85192.0,1.0
2255.3421095,-3629.833984375,8555.3544921875,-272575.96875,-262445.625,-239984.171875,-280563.125,-252940.75,-418969.96875,0.39892578125,0.722412109375,0.552734375,-1.9531248807907104,-0.2746581733226776,0.6713866591453552,66.66667175292969,85193.0,1.0
2255.3421156,-3262.55029296875,4907.19140625,-272390.09375,-262411.09375,-240881.71875,-280115.375,-252666.1875,-418893.96875,0.396728515625,0.72314453125,0.552978515625,-1.9226073026657104,-0.2136230319738388,0.7324218153953552,66.66667175292969,85194.0,1.0
2255.3440321,20443.263671875,6679.86376953125,-271204.1875,-261495.75,-239783.0,-283997.875,-257440.15625,-418428.78125,0.39892578125,0.72314453125,0.556396484375,-1.9836424589157104,-0.2136230319738388,0.7324218153953552,66.66667175292969,85195.0,1.0
2255.3477826,24400.328125,10493.1611328125,-271207.6875,-261385.875,-238728.890625,-285050.125,-258448.9375,-418434.34375,0.3994140625,0.722900390625,0.55419921875,-1.9531248807907104,-0.2441406100988388,0.7324218153953552,66.66667175292969,85196.0,1.0
2255.3571165,-146.00160217285156,9298.5947265625,-272431.125,-262321.0625,-239717.203125,-281225.625,-253709.484375,-418935.90625,0.398681640625,0.72119140625,0.552001953125,-1.9226073026657104,-0.1831054538488388,0.6713866591453552,66.66667175292969,85197.0,1.0
2255.3571239,-5968.00537109375,5386.68115234375,-272547.15625,-262517.5,-240883.421875,-279793.875,-252226.578125,-418975.78125,0.399169921875,0.720947265625,0.5537109375,-1.9226073026657104,-0.1831054538488388,0.6713866591453552,66.66667175292969,85198.0,1.0
2255.3590432,16755.673828125,6074.8466796875,-271395.875,-261659.546875,-240069.015625,-283313.90625,-256625.390625,-418531.53125,0.398681640625,0.72314453125,0.5556640625,-1.9531248807907104,-0.1831054538488388,0.7019042372703552,66.66667175292969,85199.0,1.0
2255.3683578,26581.5,10039.7783203125,-271088.9375,-261313.71875,-238786.921875,-285331.75,-258832.234375,-418409.84375,0.3974609375,0.7236328125,0.55224609375,-1.8920897245407104,-0.1831054538488388,0.5798339247703552,66.66667175292969,85200.0,1.0
2255.368365,4610.09228515625,9858.5498046875,-272244.25,-262167.75,-239454.875,-281983.90625,-254607.75,-418884.40625,0.39697265625,0.72216796875,0.548583984375,-1.9836424589157104,-0.2136230319738388,0.6408690810203552,66.66667175292969,85201.0,1.0
2255.3702874,-7627.04150390625,5730.2724609375,-272674.21875,-262598.0625,-240820.921875,-279632.5,-251975.78125,-419048.90625,0.39892578125,0.721923828125,0.551025390625,-1.9531248807907104,-0.1525878757238388,0.6103515028953552,66.66667175292969,85202.0,1.0
2255.3790292,12167.4853515625,5461.783203125,-271626.375,-261846.3125,-240343.046875,-282568.4375,-255723.1875,-418648.28125,0.398681640625,0.722412109375,0.550537109375,-1.8920897245407104,-0.2441406100988388,0.6408690810203552,66.66667175292969,85203.0,1.0
2255.3833711,27211.373046875,9515.048828125,-271017.0625,-261277.953125,-238914.59375,-285429.46875,-258997.1875,-418400.4375,0.397705078125,0.72216796875,0.552978515625,-1.9531248807907104,-0.2746581733226776,0.6713866591453552,66.66667175292969,85204.0,1.0
2255.3833774,9152.056640625,10363.7001953125,-272030.03125,-261998.40625,-239212.84375,-282775.6875,-255564.3125,-418818.6875,0.3974609375,0.720947265625,0.55419921875,-1.8920897245407104,-0.1831054538488388,0.6713866591453552,66.66667175292969,85205.0,1.0
2255.3915248,-8686.513671875,6530.822265625,-272760.5,-262647.84375,-240681.890625,-279610.5,-251898.984375,-419108.28125,0.39794921875,0.719970703125,0.553466796875,-1.9226073026657104,-0.1831054538488388,0.6103515028953552,66.66667175292969,85206.0,1.0
2255.3946149,7639.02197265625,5261.6904296875,-271871.0,-262041.765625,-240570.3125,-281803.125,-254789.875,-418771.03125,0.398193359375,0.720947265625,0.55126953125,-1.9531248807907104,-0.1525878757238388,0.6713866591453552,66.66667175292969,85207.0,1.0
2255.3946215,27077.171875,8814.09765625,-271005.71875,-261293.875,-239097.15625,-285316.625,-258912.703125,-418418.6875,0.399169921875,0.72265625,0.55322265625,-1.9531248807907104,-0.1525878757238388,0.6103515028953552,66.66667175292969,85208.0,1.0
2255.4077758,14137.7470703125,10611.357421875,-271811.625,-261832.015625,-239017.140625,-283534.75,-256496.921875,-418753.59375,0.400146484375,0.72216796875,0.5537109375,-1.9836424589157104,-0.1525878757238388,0.5798339247703552,66.66667175292969,85209.0,1.0
2255.41085,-7859.49951171875,7133.87255859375,-272771.3125,-262636.5,-240494.59375,-279824.625,-252102.75,-419136.09375,0.400390625,0.7216796875,0.555419921875,-1.9531248807907104,-0.3662109076976776,0.6408690810203552,66.66667175292969,85210.0,1.0
2255.4108545,3278.1962890625,4842.103515625,-272095.65625,-262210.75,-240761.640625,-281145.1875,-253961.34375,-418877.25,0.39892578125,0.72265625,0.551513671875,-1.9531248807907104,-0.2746581733226776,0.6713866591453552,66.66667175292969,85211.0,1.0
2255.4127734,25532.041015625,8038.4921875,-271048.625,-261348.328125,-239339.890625,-285034.90625,-258611.125,-418456.15625,0.398681640625,0.72216796875,0.554931640625,-1.9836424589157104,-0.2441406100988388,0.7019042372703552,66.66667175292969,85212.0,1.0
2255.4165351,18287.21484375,10743.4111328125,-271599.1875,-261673.671875,-238876.765625,-284218.1875,-257347.09375,-418687.25,0.397216796875,0.72216796875,0.5556640625,-2.014159917831421,-0.3051757514476776,0.6713866591453552,66.66667175292969,85213.0,1.0
2255.4208611,-6328.3154296875,7955.6123046875,-272729.84375,-262586.25,-240263.734375,-280204.0625,-252512.234375,-419143.40625,0.397705078125,0.721923828125,0.55517578125,-2.014159917831421,-0.2136230319738388,0.7019042372703552,66.66667175292969,85214.0,1.0
2255.4208682,-636.2200927734375,4953.7724609375,-272309.4375,-262367.90625,-240893.25,-280573.9375,-253231.234375,-418980.34375,0.39892578125,0.72314453125,0.55224609375,-2.014159917831421,-0.3051757514476776,0.6713866591453552,66.66667175292969,85215.0,1.0
2255.4340248,23245.189453125,7256.62841796875,-271153.6875,-261450.78125,-239614.90625,-284574.65625,-258087.375,-418522.03125,0.398681640625,0.72265625,0.552001953125,-1.9226073026657104,-0.3051757514476776,0.7934569716453552,66.66667175292969,85216.0,1.0
2255.4371174,22186.96875,10620.4765625,-271413.40625,-261541.4375,-238803.359375,-284780.71875,-258060.640625,-418633.34375,0.397705078125,0.721923828125,0.5517578125,-1.9226073026657104,-0.3051757514476776,0.7019042372703552,66.66667175292969,85217.0,1.0
2255.4371234,-3171.802001953125,8634.4794921875,-272632.375,-262495.6875,-240006.34375,-280755.28125,-253136.828125,-419130.8125,0.398193359375,0.72314453125,0.55322265625,-1.8920897245407104,-0.3356933295726776,0.6103515028953552,66.66667175292969,85218.0,1.0
2255.4408686,-3945.61962890625,4892.88671875,-272498.4375,-262501.03125,-240956.90625,-280130.9375,-252647.5,-419074.40625,0.398681640625,0.723388671875,0.55322265625,-1.9531248807907104,-0.3356933295726776,0.6713866591453552,66.66667175292969,85219.0,1.0
2255.4408759,19694.390625,6505.34130859375,-271310.9375,-261590.078125,-239902.265625,-283967.21875,-257377.578125,-418608.75,0.397216796875,0.722412109375,0.5537109375,-1.9836424589157104,-0.1525878757238388,0.6713866591453552,66.66667175292969,85220.0,1.0
2255.4490224,24717.72265625,10380.5078125,-271260.5,-261438.625,-238801.671875,-285196.03125,-258603.796875,-418592.5,0.397216796875,0.723388671875,0.553466796875,-1.9836424589157104,-0.1525878757238388,0.7324218153953552,66.66667175292969,85221.0,1.0
2255.4583763,422.0009460449219,9350.9873046875,-272479.21875,-262364.53125,-239738.203125,-281436.0,-253930.671875,-419091.84375,0.39794921875,0.723388671875,0.552978515625,-1.9836424589157104,-0.1220703050494194,0.7019042372703552,66.66667175292969,85222.0,1.0
2255.4583831,-6599.93408203125,5397.32080078125,-272652.75,-262604.03125,-240946.359375,-279830.71875,-252233.71875,-419153.96875,0.40087890625,0.723388671875,0.550537109375,-1.9531248807907104,-0.1525878757238388,0.8239745497703552,66.66667175292969,85223.0,1.0
2255.4608514,15811.982421875,5924.5537109375,-271515.40625,-261762.28125,-240188.1875,-283260.375,-256534.65625,-418716.21875,0.399658203125,0.724365234375,0.5517578125,-1.8920897245407104,-0.2136230319738388,0.8544921278953552,66.66667175292969,85224.0,1.0
2255.4608565,26669.56640625,9898.42578125,-271151.53125,-261374.15625,-238872.65625,-285441.28125,-258946.046875,-418570.5,0.3994140625,0.722900390625,0.55029296875,-1.9836424589157104,-0.3356933295726776,0.7934569716453552,66.66667175292969,85225.0,1.0
2255.4727752,5250.4248046875,9884.388671875,-272284.6875,-262206.4375,-239477.234375,-282201.34375,-254842.625,-419035.5,0.39794921875,0.724365234375,0.551025390625,-2.014159917831421,-0.3051757514476776,0.6408690810203552,66.66667175292969,85226.0,1.0
2255.4771548,-8040.548828125,5746.2763671875,-272767.8125,-262675.84375,-240868.671875,-279697.40625,-252017.359375,-419221.90625,0.398193359375,0.724365234375,0.552734375,-1.8920897245407104,-0.3051757514476776,0.6408690810203552,66.66667175292969,85227.0,1.0
2255.4771641,11193.1279296875,5293.6083984375,-271745.5625,-261948.78125,-240454.171875,-282514.1875,-255628.0625,-418832.46875,0.396240234375,0.7236328125,0.55029296875,-1.8920897245407104,-0.2441406100988388,0.6103515028953552,66.66667175292969,85228.0,1.0
2255.5032128,27086.650390625,9317.81640625,-271091.34375,-261349.484375,-239013.390625,-285504.3125,-259067.90625,-418568.25,0.3974609375,0.721923828125,0.55078125,-1.8615721464157104,-0.2136230319738388,0.6408690810203552,66.66667175292969,85229.0,1.0
2255.5032203,9787.4716796875,10335.5361328125,-272070.0,-262038.71875,-239247.359375,-282991.53125,-255798.03125,-418972.21875,0.397705078125,0.721923828125,0.552978515625,-1.8920897245407104,-0.2136230319738388,0.7019042372703552,66.66667175292969,85230.0,1.0
2255.5114559,-8867.5634765625,6548.52490234375,-272842.21875,-262715.625,-240724.0,-279715.09375,-251987.40625,-419276.90625,0.397705078125,0.7216796875,0.5537109375,-1.8920897245407104,-0.1525878757238388,0.7019042372703552,66.66667175292969,85231.0,1.0
2255.5114618,6541.19384765625,5121.23193359375,-271996.25,-262146.1875,-240679.65625,-281741.96875,-254684.375,-418955.84375,0.397705078125,0.72119140625,0.5517578125,-1.8615721464157104,-0.2136230319738388,0.6713866591453552,66.66667175292969,85232.0,1.0
2255.511464,26740.01953125,8593.798828125,-271090.375,-261372.1875,-239207.671875,-285353.28125,-258939.078125,-418588.90625,0.39892578125,0.722412109375,0.552490234375,-1.8615721464157104,-0.1831054538488388,0.7324218153953552,66.66667175292969,85233.0,1.0
2255.5189601,14756.2646484375,10561.1103515625,-271851.0625,-261872.15625,-239058.09375,-283742.96875,-256724.90625,-418905.6875,0.399169921875,0.721435546875,0.55322265625,-1.9531248807907104,-0.1831054538488388,0.7324218153953552,66.66667175292969,85234.0,1.0
2255.5189658,-7825.34619140625,7174.46337890625,-272846.78125,-262700.59375,-240527.84375,-279962.6875,-252232.03125,-419304.71875,0.400146484375,0.7216796875,0.550048828125,-1.9836424589157104,-0.3356933295726776,0.7324218153953552,66.66667175292969,85235.0,1.0
2255.5189679,2391.72607421875,4727.66259765625,-272213.15625,-262310.25,-240860.796875,-281125.875,-253901.796875,-419063.59375,0.397705078125,0.721435546875,0.553466796875,-1.9226073026657104,-0.2746581733226776,0.7324218153953552,66.66667175292969,85236.0,1.0
2255.521531,25048.439453125,7826.0615234375,-271141.25,-261433.078125,-239455.953125,-285053.6875,-258609.875,-418632.71875,0.39697265625,0.721435546875,0.548095703125,-1.9836424589157104,-0.3356933295726776,0.7324218153953552,66.66667175292969,85237.0,1.0
2255.5240193,18770.638671875,10660.7099609375,-271643.90625,-261718.734375,-238929.78125,-284407.53125,-257551.65625,-418842.21875,0.396728515625,0.7216796875,0.5517578125,-2.014159917831421,-0.3662109076976776,0.6103515028953552,66.66667175292969,85238.0,1.0
2255.5265313,-6114.4541015625,8014.978515625,-272796.25,-262643.65625,-240291.8125,-280372.34375,-252678.171875,-419308.375,0.396484375,0.72216796875,0.551025390625,-1.9531248807907104,-0.3051757514476776,0.6103515028953552,66.66667175292969,85239.0,1.0
2255.5290325,-1417.368896484375,4924.0,-272421.09375,-262461.96875,-240978.734375,-280577.09375,-253197.890625,-419163.71875,0.397216796875,0.722900390625,0.54833984375,-1.8920897245407104,-0.2441406100988388,0.6103515028953552,66.66667175292969,85240.0,1.0
2255.5315413,22614.423828125,7107.31884765625,-271254.0625,-261541.078125,-239732.84375,-284568.21875,-258054.921875,-418701.5625,0.396728515625,0.724365234375,0.551025390625,-1.9226073026657104,-0.2136230319738388,0.6103515028953552,66.66667175292969,85241.0,1.0
2255.5340351,22542.71875,10560.3955078125,-271464.375,-261592.84375,-238869.4375,-284948.46875,-258239.90625,-418792.9375,0.397705078125,0.72314453125,0.552978515625,-1.9836424589157104,-0.2746581733226776,0.6408690810203552,66.66667175292969,85242.0,1.0
2255.5365269,-2769.917724609375,8733.9892578125,-272688.0625,-262545.75,-240031.109375,-280948.3125,-253334.859375,-419291.65625,0.39794921875,0.723388671875,0.552490234375,-1.9836424589157104,-0.2136230319738388,0.5493163466453552,66.66667175292969,85243.0,1.0
2255.5408656,-4582.73388671875,4921.228515625,-272604.3125,-262589.75,-241029.0625,-280156.15625,-252639.90625,-419254.8125,0.39794921875,0.723388671875,0.5517578125,-1.8310545682907104,-0.2441406100988388,0.7019042372703552,66.66667175292969,85244.0,1.0
2255.5408733,18948.736328125,6357.99853515625,-271421.53125,-261688.15625,-240021.890625,-283941.5625,-257319.1875,-418793.5625,0.398193359375,0.723388671875,0.5517578125,-1.9836424589157104,-0.2746581733226776,0.7019042372703552,66.66667175292969,85245.0,1.0
2255.5540202,24963.14453125,10290.1181640625,-271317.28125,-261496.375,-238879.546875,-285336.75,-258751.578125,-418755.40625,0.398681640625,0.72216796875,0.550537109375,-1.8920897245407104,-0.1220703050494194,0.6713866591453552,66.66667175292969,85246.0,1.0
2255.5571055,1030.057861328125,9451.123046875,-272526.34375,-262410.5625,-239763.0625,-281648.0,-254154.28125,-419252.0625,0.398193359375,0.72021484375,0.5498046875,-1.9226073026657104,-0.2441406100988388,0.6103515028953552,66.66667175292969,85247.0,1.0
2255.5571126,-7021.66650390625,5484.67138671875,-272753.96875,-262690.9375,-241009.3125,-279885.59375,-252260.8125,-419336.4375,0.397705078125,0.719970703125,0.552978515625,-2.075195074081421,-0.3356933295726776,0.7019042372703552,66.66667175292969,85248.0,1.0
2255.559219,15015.7236328125,5843.72998046875,-271629.6875,-261864.015625,-240305.21875,-283223.78125,-256460.890625,-418903.8125,0.399658203125,0.7216796875,0.553466796875,-2.014159917831421,-0.2136230319738388,0.7934569716453552,66.66667175292969,85249.0,1.0
2255.5627825,26792.5,9819.4794921875,-271211.96875,-261435.3125,-238960.09375,-285553.46875,-259059.59375,-418734.5625,0.399169921875,0.7216796875,0.55419921875,-1.9226073026657104,-0.1220703050494194,0.7019042372703552,66.66667175292969,85250.0,1.0
2255.577761,5974.26416015625,9978.087890625,-272325.625,-262248.28125,-239505.75,-282426.28125,-255083.390625,-419192.40625,0.39794921875,0.722412109375,0.552001953125,-2.044677495956421,-0.2136230319738388,0.6103515028953552,66.66667175292969,85251.0,1.0
2255.5777697,-8339.4365234375,5856.9619140625,-272860.46875,-262754.59375,-240918.28125,-279777.59375,-252075.921875,-419399.125,0.397705078125,0.723388671875,0.552490234375,-1.9836424589157104,-0.0915527269244194,0.5493163466453552,66.66667175292969,85252.0,1.0
2255.5777739,10330.619140625,5234.60009765625,-271862.125,-262050.4375,-240566.109375,-282473.21875,-255546.96875,-419019.59375,0.3994140625,0.72314453125,0.551025390625,-1.9836424589157104,-0.1831054538488388,0.6103515028953552,66.66667175292969,85253.0,1.0
2255.5802806,27015.83984375,9207.3095703125,-271161.0,-261417.078125,-239111.1875,-285582.0,-259140.328125,-418734.375,0.398681640625,0.72412109375,0.552001953125,-1.9836424589157104,-0.2136230319738388,0.7019042372703552,66.66667175292969,85254.0,1.0
2255.5827712,10482.2529296875,10403.396484375,-272106.9375,-262076.1875,-239278.46875,-283210.65625,-256035.40625,-419124.1875,0.398681640625,0.724609375,0.552978515625,-1.9226073026657104,-0.2441406100988388,0.5798339247703552,66.66667175292969,85255.0,1.0
2255.5865323,-8858.3544921875,6680.04248046875,-272916.96875,-262779.46875,-240763.890625,-279845.09375,-252103.453125,-419444.53125,0.400146484375,0.722412109375,0.552734375,-1.9531248807907104,-0.1525878757238388,0.6713866591453552,66.66667175292969,85256.0,1.0
2255.5933544,5915.25537109375,5080.81982421875,-272097.375,-262233.375,-240785.609375,-281752.15625,-254655.21875,-419133.59375,0.3994140625,0.72216796875,0.552001953125,-1.9836424589157104,-0.2136230319738388,0.7324218153953552,66.66667175292969,85257.0,1.0
2255.5933603,26561.115234375,8478.5537109375,-271163.6875,-261441.03125,-239317.09375,-285420.96875,-258990.296875,-418755.75,0.399658203125,0.723876953125,0.552978515625,-1.9836424589157104,-0.3051757514476776,0.6103515028953552,66.66667175292969,85258.0,1.0
2255.599019,15458.109375,10622.2646484375,-271886.90625,-261909.625,-239096.53125,-283955.3125,-256953.515625,-419056.34375,0.398193359375,0.723876953125,0.552978515625,-1.9836424589157104,-0.3662109076976776,0.7019042372703552,66.66667175292969,85259.0,1.0
2255.6058587,-7791.2822265625,7426.412109375,-272927.0625,-262770.78125,-240551.625,-280076.125,-252334.390625,-419475.5625,0.39794921875,0.72314453125,0.551513671875,-1.9836424589157104,-0.2746581733226776,0.6713866591453552,66.66667175292969,85260.0,1.0
2255.6058662,1681.3876953125,4937.14306640625,-272335.90625,-262416.28125,-240945.640625,-281067.46875,-253804.703125,-419250.96875,0.398193359375,0.721923828125,0.551025390625,-2.105712652206421,-0.2441406100988388,0.6103515028953552,66.66667175292969,85261.0,1.0
2255.6076227,24893.765625,7718.41552734375,-271235.84375,-261522.3125,-239562.96875,-285049.03125,-258589.484375,-418811.1875,0.399169921875,0.722412109375,0.551025390625,-1.9531248807907104,-0.2746581733226776,0.5798339247703552,66.66667175292969,85262.0,1.0
2255.6177659,19790.771484375,10643.8115234375,-271688.59375,-261767.28125,-238978.25,-284590.5625,-257754.703125,-419001.625,0.400146484375,0.72265625,0.551513671875,-1.9531248807907104,-0.3051757514476776,0.6408690810203552,66.66667175292969,85263.0,1.0
2255.6202788,-5285.74072265625,8082.48046875,-272857.15625,-262699.53125,-240312.203125,-280539.8125,-252848.046875,-419473.5,0.398193359375,0.721923828125,0.55078125,-1.9531248807907104,-0.3051757514476776,0.6408690810203552,66.66667175292969,85264.0,1.0
2255.6240165,-1946.8370361328125,4691.98876953125,-272530.71875,-262555.59375,-241056.78125,-280571.0,-253155.953125,-419345.75,0.3984375,0.720458984375,0.552001953125,-1.9226073026657104,-0.3356933295726776,0.5798339247703552,66.66667175292969,85265.0,1.0
2255.6308665,21910.611328125,6917.6865234375,-271352.15625,-261631.296875,-239845.046875,-284545.84375,-258006.5625,-418879.9375,0.397216796875,0.7236328125,0.551513671875,-1.9226073026657104,-0.2746581733226776,0.7019042372703552,66.66667175292969,85266.0,1.0
2255.6308726,22858.59375,10512.3837890625,-271507.09375,-261638.71875,-238928.265625,-285107.40625,-258412.734375,-418947.0,0.39892578125,0.721435546875,0.552734375,-1.9531248807907104,-0.3051757514476776,0.7019042372703552,66.66667175292969,85267.0,1.0
2255.6396089,-2378.76220703125,8850.0390625,-272734.84375,-262590.0,-240047.203125,-281140.875,-253535.484375,-419447.75,0.3984375,0.724365234375,0.552978515625,-1.8920897245407104,-0.3051757514476776,0.7629393935203552,66.66667175292969,85268.0,1.0
2255.6396157,-5262.0478515625,4995.52587890625,-272705.40625,-262676.0,-241093.796875,-280174.5625,-252626.9375,-419431.75,0.39990234375,0.72314453125,0.5498046875,-1.9226073026657104,-0.2746581733226776,0.7019042372703552,66.66667175292969,85269.0,1.0
2255.6415277,18151.8515625,6227.017578125,-271527.3125,-261782.65625,-240133.828125,-283897.03125,-257242.03125,-418972.75,0.39990234375,0.72265625,0.550537109375,-1.9531248807907104,-0.2746581733226776,0.6408690810203552,66.66667175292969,85270.0,1.0
2255.6502764,25192.919921875,10187.7470703125,-271368.0625,-261547.96875,-238951.328125,-285464.78125,-258887.296875,-418911.21875,0.3984375,0.722900390625,0.551513671875,-1.9226073026657104,-0.2746581733226776,0.7324218153953552,66.66667175292969,85271.0,1.0
2255.6533622,1628.90576171875,9508.96875,-272566.21875,-262448.65625,-239782.1875,-281856.5,-254375.46875,-419402.96875,0.396484375,0.722412109375,0.552001953125,-1.8920897245407104,-0.2136230319738388,0.7324218153953552,66.66667175292969,85272.0,1.0
2255.653369,-7546.1279296875,5502.1953125,-272848.90625,-262770.25,-241063.9375,-279933.625,-252282.359375,-419509.09375,0.3974609375,0.72119140625,0.552490234375,-1.9226073026657104,-0.2136230319738388,0.6408690810203552,66.66667175292969,85273.0,1.0
2255.6552868,14092.41796875,5696.74462890625,-271742.5,-261961.109375,-240417.34375,-283174.625,-256373.625,-419084.15625,0.397705078125,0.7236328125,0.552978515625,-1.9531248807907104,-0.2746581733226776,0.5798339247703552,66.66667175292969,85274.0,1.0
2255.6690182,26801.798828125,9654.4345703125,-271274.375,-261495.84375,-239048.78125,-285652.1875,-259158.75,-418895.5,0.39892578125,0.722412109375,0.550537109375,-2.014159917831421,-0.2441406100988388,0.5493163466453552,66.66667175292969,85275.0,1.0
2255.672101,6601.90087890625,9982.46875,-272365.3125,-262286.90625,-239533.109375,-282643.53125,-255316.84375,-419345.03125,0.39892578125,0.7236328125,0.552001953125,-2.075195074081421,-0.2441406100988388,0.6408690810203552,66.66667175292969,85276.0,1.0
2255.6721057,-8623.03515625,5901.7548828125,-272950.3125,-262830.0625,-240965.765625,-279859.78125,-252136.71875,-419572.84375,0.3994140625,0.7216796875,0.55517578125,-1.9836424589157104,-0.2136230319738388,0.6713866591453552,66.66667175292969,85277.0,1.0
2255.6740222,9433.5986328125,5112.47021484375,-271976.65625,-262149.125,-240674.296875,-282427.1875,-255460.25,-419202.4375,0.3994140625,0.72314453125,0.552490234375,-1.9531248807907104,-0.2136230319738388,0.7019042372703552,66.66667175292969,85278.0,1.0
2255.6765359,26891.65234375,9036.453125,-271230.375,-261483.765625,-239209.1875,-285647.875,-259199.875,-418898.4375,0.39892578125,0.72216796875,0.551025390625,-2.014159917831421,-0.2441406100988388,0.6713866591453552,66.66667175292969,85279.0,1.0
2255.6852735,11206.8974609375,10400.53515625,-272143.84375,-262115.4375,-239312.1875,-283424.78125,-256268.03125,-419277.09375,0.3994140625,0.721435546875,0.552490234375,-1.9531248807907104,-0.2441406100988388,0.7629393935203552,66.66667175292969,85280.0,1.0
2255.6883613,-9042.7119140625,6771.05908203125,-273008.875,-262858.6875,-240799.375,-279935.5,-252177.84375,-419623.34375,0.398681640625,0.7216796875,0.553955078125,-2.014159917831421,-0.3051757514476776,0.7629393935203552,66.66667175292969,85281.0,1.0
2255.6883672,4717.20166015625,5025.02978515625,-272235.9375,-262352.375,-240887.359375,-281665.625,-254526.203125,-419330.90625,0.39990234375,0.7216796875,0.5537109375,-2.075195074081421,-0.3051757514476776,0.6713866591453552,66.66667175292969,85282.0,1.0
2255.6940134,26129.7265625,8320.75,-271256.03125,-261528.75,-239424.03125,-285428.5625,-258988.609375,-418933.125,0.399169921875,0.722412109375,0.55126953125,-2.044677495956421,-0.2746581733226776,0.6408690810203552,66.66667175292969,85283.0,1.0
2255.708353,16049.89453125,10585.697265625,-271926.34375,-261952.359375,-239140.15625,-284150.6875,-257168.640625,-419211.09375,0.39990234375,0.721923828125,0.552490234375,-2.014159917831421,-0.2441406100988388,0.6408690810203552,66.66667175292969,85284.0,1.0
2255.7083597,-7545.7705078125,7410.6767578125,-272986.6875,-262822.03125,-240586.046875,-280250.84375,-252505.703125,-419637.125,0.396484375,0.7216796875,0.552490234375,-1.9531248807907104,-0.2441406100988388,0.6103515028953552,66.66667175292969,85285.0,1.0
2255.7102296,783.5628051757812,4670.26318359375,-272435.875,-262499.0,-241043.015625,-281090.375,-253788.609375,-419425.5,0.397705078125,0.7236328125,0.551513671875,-1.9531248807907104,-0.2746581733226776,0.7324218153953552,66.66667175292969,85286.0,1.0
2255.712621,24094.376953125,7528.42529296875,-271320.875,-261598.75,-239681.875,-285071.21875,-258586.09375,-418980.25,0.399169921875,0.7236328125,0.551025390625,-2.014159917831421,-0.2136230319738388,0.7019042372703552,66.66667175292969,85287.0,1.0
2255.7215462,19876.333984375,10618.3310546875,-271725.4375,-261805.640625,-239034.21875,-284778.3125,-257953.265625,-419151.03125,0.3974609375,0.723388671875,0.549072265625,-2.014159917831421,-0.2746581733226776,0.6713866591453552,66.66667175292969,85288.0,1.0
2255.7240299,-5403.13232421875,8234.2939453125,-272912.03125,-262748.0,-240336.875,-280720.75,-253027.21875,-419632.28125,0.39892578125,0.72314453125,0.5498046875,-2.014159917831421,-0.3662109076976776,0.6713866591453552,66.66667175292969,85289.0,1.0
2255.7265247,-2877.2060546875,4899.94970703125,-272636.3125,-262643.46875,-241137.78125,-280580.75,-253128.515625,-419523.65625,0.39794921875,0.722900390625,0.547607421875,-2.014159917831421,-0.2441406100988388,0.6408690810203552,66.66667175292969,85290.0,1.0
2255.7296055,21305.146484375,6778.03271484375,-271453.8125,-261720.96875,-239965.296875,-284530.21875,-257961.5,-419057.0625,0.399658203125,0.722412109375,0.552001953125,-1.8920897245407104,-0.2746581733226776,0.5798339247703552,66.66667175292969,85291.0,1.0
2255.7296122,23366.3359375,10402.501953125,-271557.15625,-261689.671875,-238999.078125,-285269.59375,-258585.109375,-419105.6875,0.398193359375,0.721923828125,0.55078125,-1.9226073026657104,-0.2136230319738388,0.6103515028953552,66.66667175292969,85292.0,1.0
2255.7315259,-1711.7861328125,8896.3525390625,-272784.8125,-262636.125,-240071.78125,-281344.0,-253745.859375,-419606.71875,0.399658203125,0.72216796875,0.550048828125,-1.8920897245407104,-0.2441406100988388,0.5493163466453552,66.66667175292969,85293.0,1.0
2255.7402632,-5784.810546875,4938.12646484375,-272808.78125,-262762.1875,-241164.25,-280208.625,-252628.90625,-419609.9375,0.3994140625,0.72265625,0.5498046875,-2.044677495956421,-0.2441406100988388,0.6408690810203552,66.66667175292969,85294.0,1.0
2255.7446027,17334.494140625,6045.7001953125,-271637.375,-261879.3125,-240253.453125,-283861.8125,-257171.140625,-419154.3125,0.397216796875,0.722900390625,0.553955078125,-1.9531248807907104,-0.3051757514476776,0.7019042372703552,66.66667175292969,85295.0,1.0
2255.7446086,25397.3046875,10062.9345703125,-271422.4375,-261602.6875,-239030.28125,-285594.59375,-259022.390625,-419069.65625,0.397216796875,0.72314453125,0.55126953125,-1.9226073026657104,-0.2746581733226776,0.7629393935203552,66.66667175292969,85296.0,1.0
2255.7527721,2277.82177734375,9563.775390625,-272607.4375,-262488.53125,-239802.9375,-282072.5,-254605.15625,-419556.46875,0.397216796875,0.7236328125,0.551513671875,-1.9531248807907104,-0.2136230319738388,0.7629393935203552,66.66667175292969,85297.0,1.0
2255.7690331,-7934.69091796875,5543.41162109375,-272941.625,-262849.03125,-241117.84375,-279991.8125,-252313.921875,-419683.875,0.396484375,0.72265625,0.552001953125,-1.9531248807907104,-0.2441406100988388,0.8850097060203552,66.66667175292969,85298.0,1.0
2255.7727497,13250.9189453125,5560.7568359375,-271856.40625,-262061.4375,-240533.921875,-283132.40625,-256292.0,-419269.3125,0.3984375,0.724365234375,0.552001953125,-1.9531248807907104,-0.2136230319738388,0.7629393935203552,66.66667175292969,85299.0,1.0
2255.7727561,26873.32421875,9508.7900390625,-271337.84375,-261559.40625,-239140.875,-285753.65625,-259259.59375,-419060.09375,0.39892578125,0.722412109375,0.550537109375,-2.075195074081421,-0.2136230319738388,0.7019042372703552,66.66667175292969,85300.0,1.0
2255.7727584,7369.99658203125,10023.23828125,-272401.96875,-262326.25,-239560.28125,-282867.5,-255557.78125,-419499.4375,0.3984375,0.720947265625,0.55126953125,-2.014159917831421,-0.2746581733226776,0.6408690810203552,66.66667175292969,85301.0,1.0
2255.7758529,-8856.0302734375,5980.61181640625,-273036.9375,-262904.53125,-241007.78125,-279945.96875,-252202.515625,-419746.28125,0.398681640625,0.721923828125,0.55419921875,-1.9836424589157104,-0.1525878757238388,0.6713866591453552,66.66667175292969,85302.0,1.0
2255.7758589,8485.974609375,4999.28076171875,-272093.875,-262250.09375,-240782.03125,-282381.75,-255374.328125,-419386.59375,0.39794921875,0.721435546875,0.55224609375,-2.014159917831421,-0.1220703050494194,0.6713866591453552,66.66667175292969,85303.0,1.0
2255.7777751,26785.884765625,8864.970703125,-271299.5,-261551.359375,-239309.953125,-285726.125,-259273.28125,-419063.21875,0.39892578125,0.722900390625,0.551513671875,-1.9836424589157104,-0.2136230319738388,0.7629393935203552,66.66667175292969,85304.0,1.0
2255.7815354,11997.5224609375,10416.4501953125,-272173.4375,-262147.875,-239338.640625,-283656.34375,-256520.703125,-419423.625,0.3974609375,0.72216796875,0.5498046875,-2.014159917831421,-0.2136230319738388,0.7324218153953552,66.66667175292969,85305.0,1.0
2255.79027,-9054.87109375,6865.2939453125,-273083.0,-262922.0625,-240827.09375,-280059.3125,-252287.734375,-419789.5625,0.397216796875,0.723388671875,0.54833984375,-2.014159917831421,-0.1831054538488388,0.6103515028953552,66.66667175292969,85306.0,1.0
2255.7933476,3997.922607421875,4941.34521484375,-272337.25,-262440.25,-240979.625,-281658.90625,-254481.78125,-419508.46875,0.396728515625,0.72412109375,0.54736328125,-1.9531248807907104,-0.3051757514476776,0.7019042372703552,66.66667175292969,85307.0,1.0
2255.793353,25842.10546875,8147.74755859375,-271335.34375,-261604.46875,-239530.515625,-285472.375,-259016.59375,-419104.09375,0.39794921875,0.7216796875,0.550537109375,-1.8920897245407104,-0.2441406100988388,0.7324218153953552,66.66667175292969,85308.0,1.0
2255.8015151,16661.4375,10567.1005859375,-271968.34375,-261997.140625,-239183.078125,-284350.0625,-257385.359375,-419367.84375,0.397216796875,0.721435546875,0.5517578125,-1.8310545682907104,-0.2441406100988388,0.7324218153953552,66.66667175292969,85309.0,1.0
2255.8046064,-7372.2314453125,7519.7529296875,-273055.375,-262883.78125,-240610.8125,-280399.59375,-252648.84375,-419805.3125,0.39892578125,0.722412109375,0.551513671875,-2.014159917831421,-0.3662109076976776,0.6713866591453552,66.66667175292969,85310.0,1.0
2255.8046121,-65.44590759277344,4634.947265625,-272550.375,-262596.96875,-241129.734375,-281068.09375,-253727.359375,-419609.59375,0.39892578125,0.7216796875,0.551513671875,-1.9836424589157104,-0.2136230319738388,0.7324218153953552,66.66667175292969,85311.0,1.0
2255.80653,23534.0625,7352.56201171875,-271416.4375,-261687.265625,-239794.984375,-285063.34375,-258556.046875,-419156.65625,0.401123046875,0.721923828125,0.55078125,-2.014159917831421,-0.1831054538488388,0.7324218153953552,66.66667175292969,85312.0,1.0
2255.8152341,20392.033203125,10555.9248046875,-271769.875,-261852.578125,-239089.375,-284953.09375,-258144.421875,-419306.75,0.397216796875,0.72314453125,0.55029296875,-1.9531248807907104,-0.0915527269244194,0.6103515028953552,66.66667175292969,85313.0,1.0
2255.8240242,-5011.88720703125,8308.9482421875,-272971.9375,-262802.15625,-240359.765625,-280900.03125,-253209.875,-419796.09375,0.39892578125,0.722900390625,0.552978515625,-1.8920897245407104,-0.2441406100988388,0.7019042372703552,66.66667175292969,85314.0,1.0
2255.82653,-3610.790283203125,4880.2802734375,-272747.4375,-262737.34375,-241214.3125,-280582.1875,-253096.0625,-419705.53125,0.39990234375,0.72021484375,0.552978515625,-1.8005369901657104,-0.2441406100988388,0.6408690810203552,66.66667175292969,85315.0,1.0
2255.8296165,20578.89453125,6620.408203125,-271562.25,-261818.6875,-240084.484375,-284498.28125,-257900.4375,-419239.71875,0.399169921875,0.72216796875,0.552734375,-1.9226073026657104,-0.2441406100988388,0.6103515028953552,66.66667175292969,85316.0,1.0
2255.8296222,23724.6796875,10306.9267578125,-271608.5,-261742.34375,-239067.65625,-285418.75,-258746.125,-419264.03125,0.3984375,0.7236328125,0.5498046875,-1.9226073026657104,-0.2746581733226776,0.6103515028953552,66.66667175292969,85317.0,1.0
2255.8340183,-1139.6707763671875,8976.3720703125,-272835.40625,-262683.71875,-240093.515625,-281547.40625,-253959.375,-419766.3125,0.39794921875,0.721435546875,0.552978515625,-1.9531248807907104,-0.2441406100988388,0.6103515028953552,66.66667175292969,85318.0,1.0
2255.8377747,-6348.25341796875,4965.30615234375,-272914.8125,-262852.25,-241231.296875,-280238.9375,-252628.90625,-419791.625,0.39990234375,0.720458984375,0.552490234375,-1.9836424589157104,-0.3356933295726776,0.7019042372703552,66.66667175292969,85319.0,1.0
2255.8490137,16495.677734375,5902.73828125,-271753.25,-261981.859375,-240374.15625,-283816.28125,-257091.203125,-419340.84375,0.398681640625,0.723388671875,0.553466796875,-2.044677495956421,-0.2441406100988388,0.5798339247703552,66.66667175292969,85320.0,1.0
2255.8521007,25654.529296875,9955.3779296875,-271478.65625,-261660.0,-239112.984375,-285725.65625,-259161.25,-419230.78125,0.39892578125,0.722900390625,0.552978515625,-2.014159917831421,-0.2136230319738388,0.6103515028953552,66.66667175292969,85321.0,1.0
2255.8521079,3020.43603515625,9659.9775390625,-272649.90625,-262531.34375,-239821.890625,-282293.6875,-254842.625,-419712.59375,0.400146484375,0.723876953125,0.5498046875,-1.9531248807907104,-0.2136230319738388,0.6713866591453552,66.66667175292969,85322.0,1.0
2255.8565181,-8445.2939453125,5653.4716796875,-273048.375,-262940.03125,-241165.953125,-280032.59375,-252329.21875,-419868.40625,0.40087890625,0.7236328125,0.5517578125,-2.105712652206421,-0.2441406100988388,0.6713866591453552,66.66667175292969,85323.0,1.0
2255.8608482,12270.572265625,5486.10205078125,-271978.625,-262168.90625,-240641.21875,-283064.65625,-256186.765625,-419459.84375,0.39990234375,0.722412109375,0.552734375,-2.105712652206421,-0.1831054538488388,0.6713866591453552,66.66667175292969,85324.0,1.0
2255.8608542,26832.197265625,9397.03125,-271407.15625,-261627.8125,-239228.671875,-285830.28125,-259337.828125,-419227.1875,0.39697265625,0.72216796875,0.55078125,-2.044677495956421,-0.2136230319738388,0.6713866591453552,66.66667175292969,85325.0,1.0
2255.8715209,8052.529296875,10080.01171875,-272439.34375,-262364.0625,-239580.578125,-283081.0,-255793.203125,-419651.0625,0.398681640625,0.72216796875,0.551513671875,-1.9836424589157104,-0.2746581733226776,0.6713866591453552,66.66667175292969,85326.0,1.0
2255.8746008,-9056.390625,6084.234375,-273123.125,-262977.6875,-241043.640625,-280032.3125,-252272.4375,-419918.75,0.3974609375,0.722412109375,0.552734375,-1.9836424589157104,-0.2746581733226776,0.6713866591453552,66.66667175292969,85327.0,1.0
2255.8746066,7569.46337890625,4925.0732421875,-272211.90625,-262352.0,-240886.375,-282329.09375,-255280.8125,-419572.65625,0.3955078125,0.723388671875,0.552001953125,-1.9836424589157104,-0.2136230319738388,0.7324218153953552,66.66667175292969,85328.0,1.0
2255.8777582,26531.87890625,8732.916015625,-271379.875,-261627.71875,-239412.40625,-285762.78125,-259300.359375,-419234.78125,0.39697265625,0.7216796875,0.552001953125,-1.9836424589157104,-0.1220703050494194,0.6713866591453552,66.66667175292969,85329.0,1.0
2255.8870957,12610.318359375,10434.95703125,-272215.84375,-262191.875,-239379.234375,-283855.90625,-256738.5,-419581.4375,0.39697265625,0.72265625,0.552734375,-1.8920897245407104,-0.1831054538488388,0.6103515028953552,66.66667175292969,85330.0,1.0
2255.887102,-8938.2841796875,6924.92822265625,-273151.90625,-262981.25,-240865.0,-280204.78125,-252425.0625,-419955.3125,0.397216796875,0.72265625,0.552490234375,-1.9531248807907104,-0.1525878757238388,0.7019042372703552,66.66667175292969,85331.0,1.0
2255.8890201,3206.044921875,4839.2421875,-272444.34375,-262529.21875,-241083.609375,-281645.59375,-254426.4375,-419685.3125,0.3974609375,0.72314453125,0.5517578125,-1.9836424589157104,-0.1220703050494194,0.6713866591453552,66.66667175292969,85332.0,1.0
2255.8977657,25472.763671875,7951.23095703125,-271416.53125,-261678.671875,-239648.265625,-285503.0625,-259026.953125,-419271.71875,0.398193359375,0.724609375,0.55126953125,-1.9836424589157104,-0.1220703050494194,0.6408690810203552,66.66667175292969,85333.0,1.0
2255.9020938,17305.16796875,10532.6787109375,-272003.5,-262033.625,-239231.53125,-284550.875,-257601.8125,-419516.6875,0.399658203125,0.721923828125,0.552734375,-1.9226073026657104,-0.2136230319738388,0.6408690810203552,66.66667175292969,85334.0,1.0
2255.9020995,-7125.46826171875,7605.22607421875,-273121.0,-262939.9375,-240639.15625,-280562.59375,-252807.71875,-419968.8125,0.3994140625,0.72314453125,0.555419921875,-2.044677495956421,-0.3662109076976776,0.6103515028953552,66.66667175292969,85335.0,1.0
2255.9102645,-863.8502807617188,4585.416015625,-272663.21875,-262692.09375,-241222.984375,-281059.875,-253679.34375,-419791.8125,0.397705078125,0.720458984375,0.55224609375,-1.9836424589157104,-0.3051757514476776,0.6713866591453552,66.66667175292969,85336.0,1.0
2255.9146085,22947.732421875,7174.7314453125,-271512.375,-261774.4375,-239916.390625,-285059.0625,-258526.1875,-419332.5,0.3994140625,0.7216796875,0.55419921875,-1.9531248807907104,-0.3051757514476776,0.7629393935203552,66.66667175292969,85337.0,1.0
2255.9146151,20868.751953125,10491.9091796875,-271811.96875,-261896.46875,-239146.59375,-285130.40625,-258336.015625,-419459.03125,0.399658203125,0.72216796875,0.55224609375,-1.9531248807907104,-0.3051757514476776,0.7019042372703552,66.66667175292969,85338.0,1.0
2255.9265212,-4601.5986328125,8408.369140625,-273024.96875,-262849.375,-240378.546875,-281087.3125,-253400.84375,-419952.8125,0.399658203125,0.720703125,0.55126953125,-1.9836424589157104,-0.2441406100988388,0.7324218153953552,66.66667175292969,85339.0,1.0
2255.9295986,-4281.3427734375,4882.42578125,-272849.90625,-262824.34375,-241289.234375,-280596.21875,-253074.6875,-419882.46875,0.40087890625,0.721435546875,0.5517578125,-1.8310545682907104,-0.3662109076976776,0.7019042372703552,66.66667175292969,85340.0,1.0
2255.9296045,19864.0859375,6451.697265625,-271662.84375,-261909.96875,-240203.5625,-284474.34375,-257844.46875,-419417.90625,0.39990234375,0.723388671875,0.552001953125,-1.9226073026657104,-0.3356933295726776,0.5493163466453552,66.66667175292969,85341.0,1.0
2255.9315129,24041.626953125,10210.27734375,-271655.59375,-261791.421875,-239136.671875,-285566.4375,-258902.59375,-419418.78125,0.398681640625,0.72412109375,0.55126953125,-2.105712652206421,-0.2136230319738388,0.6103515028953552,66.66667175292969,85342.0,1.0
2255.9340271,-564.873291015625,9062.6494140625,-272876.8125,-262722.875,-240109.6875,-281752.34375,-254173.953125,-419918.40625,0.398681640625,0.724365234375,0.54931640625,-1.9531248807907104,-0.2441406100988388,0.6713866591453552,66.66667175292969,85343.0,1.0
2255.9427614,-6879.0625,5021.90087890625,-273011.71875,-262933.6875,-241290.765625,-280272.84375,-252632.296875,-419966.15625,0.397216796875,0.72216796875,0.548095703125,-1.9836424589157104,-0.2136230319738388,0.6408690810203552,66.66667175292969,85344.0,1.0
2255.9471053,15672.6865234375,5764.15771484375,-271862.65625,-262077.96875,-240489.5,-283769.625,-257007.703125,-419522.0625,0.3974609375,0.72314453125,0.550048828125,-1.9226073026657104,-0.1525878757238388,0.6408690810203552,66.66667175292969,85345.0,1.0
2255.9471103,25865.708984375,9821.8037109375,-271532.3125,-261713.640625,-239193.984375,-285848.0625,-259288.203125,-419388.75,0.398193359375,0.722900390625,0.552978515625,-1.9836424589157104,-0.2746581733226776,0.6713866591453552,66.66667175292969,85346.0,1.0
2255.9533564,3782.541259765625,9711.654296875,-272684.6875,-262565.5,-239840.671875,-282518.8125,-255084.015625,-419862.0625,0.39794921875,0.7216796875,0.552734375,-1.9531248807907104,-0.2746581733226776,0.6408690810203552,66.66667175292969,85347.0,1.0
2255.9533625,-8722.4560546875,5714.2685546875,-273137.15625,-263015.5,-241212.796875,-280101.25,-252372.484375,-420040.0,0.3994140625,0.7236328125,0.552490234375,-1.9836424589157104,-0.1831054538488388,0.6713866591453552,66.66667175292969,85348.0,1.0
2255.9552762,11406.810546875,5371.83984375,-272093.78125,-262269.5625,-240751.015625,-283014.125,-256095.21875,-419643.46875,0.399169921875,0.723388671875,0.552734375,-2.014159917831421,-0.2441406100988388,0.6408690810203552,66.66667175292969,85349.0,1.0
2255.9640121,26843.1953125,9240.5693359375,-271472.9375,-261693.515625,-239322.203125,-285916.28125,-259420.53125,-419392.15625,0.3974609375,0.7216796875,0.552490234375,-2.014159917831421,-0.2441406100988388,0.6408690810203552,66.66667175292969,85350.0,1.0
2255.9670998,8853.705078125,10111.125,-272474.40625,-262401.8125,-239608.203125,-283302.90625,-256032.546875,-419803.59375,0.397705078125,0.722900390625,0.55224609375,-1.9531248807907104,-0.2441406100988388,0.7629393935203552,66.66667175292969,85351.0,1.0
2255.9671057,-9167.7919921875,6162.197265625,-273209.0625,-263051.875,-241084.5,-280134.25,-252356.21875,-420093.375,0.39794921875,0.72216796875,0.55224609375,-2.044677495956421,-0.2136230319738388,0.7934569716453552,66.66667175292969,85352.0,1.0
2255.9727601,6657.154296875,4826.81494140625,-272329.09375,-262452.59375,-240989.71875,-282285.46875,-255196.21875,-419757.1875,0.398193359375,0.722900390625,0.5517578125,-1.9531248807907104,-0.3356933295726776,0.7324218153953552,66.66667175292969,85353.0,1.0
2255.9765381,26304.16015625,8536.220703125,-271455.6875,-261699.953125,-239515.40625,-285810.78125,-259337.46875,-419401.90625,0.3994140625,0.72265625,0.55419921875,-1.9226073026657104,-0.2441406100988388,0.7019042372703552,66.66667175292969,85354.0,1.0
2255.9852618,13299.3779296875,10389.44921875,-272250.59375,-262228.8125,-239414.46875,-284063.6875,-256964.515625,-419731.1875,0.3984375,0.721435546875,0.552978515625,-1.9531248807907104,-0.1831054538488388,0.6713866591453552,66.66667175292969,85355.0,1.0
2255.9896039,-8866.22265625,6986.0830078125,-273222.71875,-263042.84375,-240892.09375,-280332.71875,-252543.078125,-420120.375,0.39892578125,0.72119140625,0.55029296875,-1.9836424589157104,-0.3051757514476776,0.6408690810203552,66.66667175292969,85356.0,1.0
2255.9896094,2364.904052734375,4751.17626953125,-272557.09375,-262626.40625,-241177.484375,-281616.25,-254357.40625,-419867.25,0.396728515625,0.72119140625,0.552490234375,-1.9836424589157104,-0.2136230319738388,0.6408690810203552,66.66667175292969,85357.0,1.0
2255.9977802,25060.77734375,7745.41650390625,-271501.03125,-261758.078125,-239758.59375,-285518.34375,-259024.359375,-419442.03125,0.39794921875,0.72119140625,0.552734375,-1.9836424589157104,-0.2746581733226776,0.6713866591453552,66.66667175292969,85358.0,1.0
2256.0151957,17929.5859375,10461.779296875,-272042.375,-262075.640625,-239280.359375,-284746.3125,-257814.515625,-419669.5,0.397216796875,0.722900390625,0.55126953125,-2.014159917831421,-0.2746581733226776,0.7019042372703552,66.66667175292969,85359.0,1.0
2256.0152027,-6825.41845703125,7693.11328125,-273181.6875,-262993.15625,-240660.96875,-280723.96875,-252966.234375,-420130.28125,0.397216796875,0.72314453125,0.551513671875,-2.014159917831421,-0.2136230319738388,0.7019042372703552,66.66667175292969,85360.0,1.0
2256.0152052,-1628.6375732421875,4551.9775390625,-272772.84375,-262784.375,-241304.609375,-281046.8125,-253627.9375,-419971.78125,0.39697265625,0.72265625,0.552001953125,-2.044677495956421,-0.1525878757238388,0.7934569716453552,66.66667175292969,85361.0,1.0
2256.018356,22337.171875,6993.95068359375,-271608.75,-261861.78125,-240030.75,-285041.53125,-258483.0,-419507.9375,0.39892578125,0.722412109375,0.552734375,-2.044677495956421,-0.1831054538488388,0.7629393935203552,66.66667175292969,85362.0,1.0
2256.0183619,21365.943359375,10413.9462890625,-271854.71875,-261941.53125,-239205.609375,-285300.625,-258520.015625,-419613.78125,0.400146484375,0.7216796875,0.552978515625,-1.8920897245407104,-0.2441406100988388,0.7324218153953552,66.66667175292969,85363.0,1.0
2256.0202613,-4104.40625,8494.0205078125,-273076.28125,-262896.9375,-240397.671875,-281279.375,-253597.265625,-420112.15625,0.400146484375,0.720703125,0.548095703125,-1.9226073026657104,-0.2136230319738388,0.6713866591453552,66.66667175292969,85364.0,1.0
2256.0227601,-4958.421875,4879.92236328125,-272956.75,-262913.9375,-241361.296875,-280607.03125,-253050.09375,-420061.625,0.39990234375,0.720703125,0.549072265625,-2.044677495956421,-0.1525878757238388,0.6408690810203552,66.66667175292969,85365.0,1.0
2256.0327827,19086.423828125,6291.03271484375,-271772.71875,-262007.078125,-240322.921875,-284435.25,-257771.953125,-419599.9375,0.400390625,0.721435546875,0.550537109375,-2.044677495956421,-0.2136230319738388,0.5798339247703552,66.66667175292969,85366.0,1.0
2256.0352614,24371.44921875,10098.5185546875,-271706.84375,-261843.1875,-239209.1875,-285711.09375,-259056.1875,-419576.875,0.39892578125,0.72119140625,0.55078125,-1.9531248807907104,-0.2441406100988388,0.6713866591453552,66.66667175292969,85367.0,1.0
2256.0377818,68.66456604003906,9131.224609375,-272922.875,-262766.0625,-240129.8125,-281968.4375,-254401.484375,-420075.21875,0.3984375,0.72265625,0.551025390625,-2.014159917831421,-0.3051757514476776,0.6713866591453552,66.66667175292969,85368.0,1.0
2256.0402682,-7410.6767578125,5046.9345703125,-273114.28125,-263020.0625,-241352.09375,-280317.4375,-252646.25,-420145.84375,0.398681640625,0.722412109375,0.553466796875,-2.044677495956421,-0.2441406100988388,0.7019042372703552,66.66667175292969,85369.0,1.0
2256.0446065,14731.8564453125,5617.8876953125,-271978.625,-262180.25,-240608.140625,-283721.78125,-256921.25,-419707.5625,0.39990234375,0.723876953125,0.5517578125,-2.075195074081421,-0.3051757514476776,0.8239745497703552,66.66667175292969,85370.0,1.0
2256.0446122,26008.40234375,9691.4482421875,-271587.9375,-261770.859375,-239281.609375,-285975.65625,-259420.609375,-419549.3125,0.39990234375,0.722412109375,0.548095703125,-2.014159917831421,-0.2136230319738388,0.7019042372703552,66.66667175292969,85371.0,1.0
2256.063946,4494.8466796875,9743.21484375,-272718.5625,-262599.40625,-239865.96875,-282763.09375,-255344.375,-420012.46875,0.398681640625,0.72216796875,0.550048828125,-1.8920897245407104,-0.1525878757238388,0.6103515028953552,66.66667175292969,85372.0,1.0
2256.0639538,-9159.65625,5744.2197265625,-273226.75,-263088.4375,-241264.390625,-280181.71875,-252426.84375,-420211.03125,0.397216796875,0.7216796875,0.55224609375,-1.9836424589157104,-0.1831054538488388,0.7324218153953552,66.66667175292969,85373.0,1.0
2256.0639578,10367.90234375,5230.75537109375,-272210.8125,-262369.15625,-240868.84375,-282961.5625,-255998.921875,-419826.9375,0.3974609375,0.722412109375,0.548828125,-1.8920897245407104,-0.3356933295726776,0.6103515028953552,66.66667175292969,85374.0,1.0
2256.0665167,26702.19921875,9068.2822265625,-271539.90625,-261757.0,-239422.234375,-285991.84375,-259491.34375,-419554.5,0.399169921875,0.7216796875,0.5517578125,-1.8310545682907104,-0.2136230319738388,0.6103515028953552,66.66667175292969,85375.0,1.0
2256.0690096,9495.2900390625,10134.638671875,-272509.625,-262438.09375,-239639.5,-283525.71875,-256274.109375,-419955.3125,0.397705078125,0.72216796875,0.551025390625,-1.9836424589157104,-0.2441406100988388,0.7324218153953552,66.66667175292969,85376.0,1.0
2256.0715148,-9339.990234375,6314.63623046875,-273289.6875,-263120.1875,-241120.796875,-280234.65625,-252439.8125,-420262.96875,0.40087890625,0.722900390625,0.54931640625,-1.8920897245407104,-0.2136230319738388,0.7019042372703552,66.66667175292969,85377.0,1.0
2256.0740273,5803.31787109375,4775.76318359375,-272445.4375,-262552.71875,-241097.546875,-282241.03125,-255108.78125,-419941.90625,0.40087890625,0.72314453125,0.551513671875,-1.8920897245407104,-0.2136230319738388,0.6713866591453552,66.66667175292969,85378.0,1.0
2256.0827599,26107.017578125,8370.4609375,-271535.625,-261776.140625,-239626.171875,-285855.84375,-259370.734375,-419573.28125,0.400146484375,0.721923828125,0.55224609375,-1.8615721464157104,-0.2746581733226776,0.7324218153953552,66.66667175292969,85379.0,1.0
2256.0858479,14084.9970703125,10399.462890625,-272286.90625,-262267.875,-239452.90625,-284276.5625,-257197.15625,-419884.34375,0.399169921875,0.721435546875,0.55322265625,-1.9226073026657104,-0.1525878757238388,0.6408690810203552,66.66667175292969,85380.0,1.0
2256.0858542,-8687.765625,7093.63916015625,-273295.59375,-263105.71875,-240921.0625,-280472.125,-252673.25,-420289.4375,0.398681640625,0.720458984375,0.552490234375,-1.8920897245407104,-0.1831054538488388,0.7934569716453552,66.66667175292969,85381.0,1.0
2256.0965089,1570.2548828125,4713.17822265625,-272672.15625,-262723.9375,-241271.796875,-281586.75,-254286.6875,-420051.34375,0.398681640625,0.721923828125,0.551513671875,-1.9531248807907104,-0.3051757514476776,0.6103515028953552,66.66667175292969,85382.0,1.0
2256.0995956,24657.283203125,7595.65966796875,-271591.40625,-261841.84375,-239872.9375,-285527.28125,-259013.71875,-419617.375,0.398193359375,0.720947265625,0.554931640625,-1.9226073026657104,-0.2746581733226776,0.6103515028953552,66.66667175292969,85383.0,1.0
2256.0996023,18594.328125,10442.646484375,-272081.1875,-262116.859375,-239327.375,-284935.21875,-258020.6875,-419823.1875,0.3974609375,0.720703125,0.556884765625,-1.9226073026657104,-0.3051757514476776,0.6103515028953552,66.66667175292969,85384.0,1.0
2256.1040111,-6424.875,7817.12060546875,-273242.21875,-263047.6875,-240681.453125,-280892.34375,-253134.046875,-420294.1875,0.400146484375,0.722900390625,0.5517578125,-1.9531248807907104,-0.2136230319738388,0.6103515028953552,66.66667175292969,85385.0,1.0
2256.1083466,-2311.528076171875,4547.86474609375,-272883.78125,-262878.78125,-241387.3125,-281039.125,-253582.96875,-420154.15625,0.3984375,0.723876953125,0.55126953125,-1.8920897245407104,-0.2136230319738388,0.6408690810203552,66.66667175292969,85386.0,1.0
2256.1083516,21738.4140625,6845.98193359375,-271711.46875,-261955.578125,-240150.1875,-285024.625,-258439.46875,-419689.15625,0.3974609375,0.721923828125,0.550537109375,-1.8920897245407104,-0.2746581733226776,0.6408690810203552,66.66667175292969,85387.0,1.0
2256.1140086,21857.861328125,10368.3486328125,-271904.59375,-261993.578125,-239270.15625,-285467.28125,-258700.359375,-419773.5625,0.396728515625,0.722900390625,0.55078125,-1.8920897245407104,-0.2136230319738388,0.6713866591453552,66.66667175292969,85388.0,1.0
2256.1427667,-3556.60986328125,8605.3330078125,-273131.09375,-262947.8125,-240419.9375,-281475.96875,-253800.671875,-420274.59375,0.39697265625,0.72119140625,0.551025390625,-1.8920897245407104,-0.2441406100988388,0.7934569716453552,66.66667175292969,85389.0,1.0
2256.1458522,-5552.44189453125,4913.4501953125,-273065.03125,-263005.9375,-241433.546875,-280624.75,-253034.984375,-420245.1875,0.3974609375,0.722900390625,0.552978515625,-1.9531248807907104,-0.1525878757238388,0.7019042372703552,66.66667175292969,85390.0,1.0
2256.1458581,18339.33984375,6168.27685546875,-271882.25,-262105.421875,-240440.9375,-284391.71875,-257695.421875,-419783.84375,0.398681640625,0.7216796875,0.5517578125,-1.9836424589157104,-0.1525878757238388,0.6713866591453552,66.66667175292969,85391.0,1.0
2256.1477564,24706.189453125,10030.837890625,-271759.40625,-261898.359375,-239284.109375,-285845.9375,-259199.953125,-419736.8125,0.397705078125,0.723388671875,0.55224609375,-1.9836424589157104,-0.2136230319738388,0.7629393935203552,66.66667175292969,85392.0,1.0
2256.1502656,796.2586059570312,9249.2421875,-272964.25,-262807.4375,-240149.203125,-282181.5,-254628.484375,-420230.96875,0.398193359375,0.722900390625,0.552001953125,-1.9531248807907104,-0.2746581733226776,0.6713866591453552,66.66667175292969,85393.0,1.0
2256.1527678,-7765.2646484375,5156.45849609375,-273210.65625,-263102.21875,-241407.875,-280363.40625,-252665.46875,-420322.53125,0.395751953125,0.720947265625,0.554931640625,-1.9531248807907104,-0.2441406100988388,0.5798339247703552,66.66667175292969,85394.0,1.0
2256.155275,14000.150390625,5521.23876953125,-272091.46875,-262280.84375,-240723.828125,-283673.0625,-256833.71875,-419892.65625,0.396240234375,0.72216796875,0.554443359375,-1.8920897245407104,-0.2136230319738388,0.6408690810203552,66.66667175292969,85395.0,1.0
2256.1577579,26203.3984375,9589.435546875,-271651.75,-261835.859375,-239370.390625,-286076.9375,-259522.8125,-419714.46875,0.3984375,0.72314453125,0.552978515625,-1.8920897245407104,-0.2746581733226776,0.6713866591453552,66.66667175292969,85396.0,1.0
2256.1602686,5367.27978515625,9828.8671875,-272759.5,-262642.3125,-239891.71875,-282984.71875,-255584.34375,-420169.1875,0.3984375,0.7236328125,0.5478515625,-1.9226073026657104,-0.2441406100988388,0.6713866591453552,66.66667175292969,85397.0,1.0
2256.1627694,-9219.916015625,5850.52490234375,-273319.46875,-263170.25,-241312.75,-280269.34375,-252494.53125,-420390.8125,0.3984375,0.72265625,0.549560546875,-1.9531248807907104,-0.2441406100988388,0.6408690810203552,66.66667175292969,85398.0,1.0
2256.1652553,9643.34765625,5160.83935546875,-272333.21875,-262478.4375,-240982.84375,-282919.625,-255916.046875,-420020.0625,0.398193359375,0.722412109375,0.55126953125,-1.8920897245407104,-0.2441406100988388,0.6408690810203552,66.66667175292969,85399.0,1.0
2256.1683496,26750.12109375,8936.6748046875,-271613.84375,-261830.578125,-239523.453125,-286067.75,-259561.703125,-419725.1875,0.39892578125,0.7236328125,0.55224609375,-1.9836424589157104,-0.3051757514476776,0.6103515028953552,66.66667175292969,85400.0,1.0
2256.1683557,10434.6884765625,10176.5712890625,-272546.46875,-262477.96875,-239669.625,-283750.84375,-256519.546875,-420109.46875,0.39794921875,0.72265625,0.55126953125,-1.8615721464157104,-0.2746581733226776,0.5798339247703552,66.66667175292969,85401.0,1.0
2256.1708728,-9254.337890625,6412.17919921875,-273372.9375,-263192.6875,-241155.390625,-280347.3125,-252537.984375,-420437.21875,0.398193359375,0.7216796875,0.55126953125,-1.9226073026657104,-0.2441406100988388,0.6408690810203552,66.66667175292969,85402.0,1.0
2256.1708793,4926.14599609375,4691.00537109375,-272565.40625,-262656.625,-241198.765625,-282195.4375,-255021.890625,-420129.75,0.3994140625,0.721923828125,0.551513671875,-1.9531248807907104,-0.2136230319738388,0.5493163466453552,66.66667175292969,85403.0,1.0
2256.1840114,25822.166015625,8234.6513671875,-271618.3125,-261855.34375,-239733.734375,-285889.46875,-259392.453125,-419745.5625,0.39794921875,0.722900390625,0.55078125,-1.9836424589157104,-0.2746581733226776,0.5798339247703552,66.66667175292969,85404.0,1.0
2256.1865055,14801.59375,10426.2841796875,-272327.0625,-262310.96875,-239494.390625,-284487.125,-257428.09375,-420040.875,0.39892578125,0.7216796875,0.54833984375,-2.044677495956421,-0.2136230319738388,0.5493163466453552,66.66667175292969,85405.0,1.0
2256.1895864,-8515.2998046875,7229.26953125,-273369.96875,-263171.59375,-240949.484375,-280618.9375,-252813.625,-420460.65625,0.398193359375,0.72265625,0.55029296875,-2.075195074081421,-0.3356933295726776,0.6103515028953552,66.66667175292969,85406.0,1.0
2256.1895924,724.196533203125,4703.5224609375,-272791.96875,-262827.125,-241366.84375,-281560.375,-254220.078125,-420239.46875,0.399658203125,0.7216796875,0.55029296875,-2.044677495956421,-0.4272460639476776,0.6713866591453552,66.66667175292969,85407.0,1.0
2256.1915107,24165.455078125,7453.234375,-271688.96875,-261933.125,-239992.21875,-285530.5,-258996.46875,-419797.875,0.3974609375,0.720703125,0.550537109375,-1.9531248807907104,-0.3051757514476776,0.6408690810203552,66.66667175292969,85408.0,1.0
2256.2002596,19213.828125,10431.2021484375,-272124.375,-262163.625,-239380.84375,-285126.5625,-258230.25,-419980.1875,0.398681640625,0.723388671875,0.552978515625,-2.014159917831421,-0.2441406100988388,0.6713866591453552,66.66667175292969,85409.0,1.0
2256.2040125,-6012.17236328125,7952.3935546875,-273303.09375,-263102.5,-240702.90625,-281071.84375,-253315.1875,-420458.15625,0.398193359375,0.721923828125,0.551513671875,-1.9836424589157104,-0.1831054538488388,0.7019042372703552,66.66667175292969,85410.0,1.0
2256.2077564,-3025.711181640625,4554.74951171875,-272997.59375,-262975.15625,-241470.28125,-281038.59375,-253545.140625,-420339.5,0.39892578125,0.72216796875,0.5556640625,-1.9836424589157104,-0.1831054538488388,0.7324218153953552,66.66667175292969,85411.0,1.0
2256.2195974,21087.888671875,6700.87451171875,-271817.0,-262051.5,-240272.40625,-285003.4375,-258389.84375,-419873.34375,0.398681640625,0.720703125,0.554931640625,-1.8920897245407104,-0.0915527269244194,0.6408690810203552,66.66667175292969,85412.0,1.0
2256.2196041,22340.033203125,10327.400390625,-271950.90625,-262043.1875,-239334.71875,-285633.3125,-258880.0625,-419932.25,0.39794921875,0.720703125,0.554443359375,-1.9531248807907104,-0.1525878757238388,0.6103515028953552,66.66667175292969,85413.0,1.0
2256.2258529,-2954.006591796875,8733.453125,-273179.09375,-262992.5,-240436.46875,-281680.0,-254013.90625,-420432.9375,0.398681640625,0.7216796875,0.55126953125,-1.9226073026657104,-0.2441406100988388,0.6103515028953552,66.66667175292969,85414.0,1.0
2256.2258598,-6144.49462890625,4967.27294921875,-273170.6875,-263095.15625,-241500.234375,-280646.625,-253023.71875,-420426.0625,0.39892578125,0.72314453125,0.551025390625,-1.9836424589157104,-0.3356933295726776,0.5798339247703552,66.66667175292969,85415.0,1.0
2256.2283427,17526.181640625,6051.2431640625,-271996.34375,-262207.78125,-240561.109375,-284346.3125,-257615.578125,-419970.6875,0.3994140625,0.72412109375,0.5537109375,-1.9531248807907104,-0.3356933295726776,0.5493163466453552,66.66667175292969,85416.0,1.0
2256.2283489,24988.177734375,9946.4375,-271815.375,-261956.28125,-239363.59375,-285980.46875,-259342.5625,-419899.1875,0.3974609375,0.723388671875,0.549560546875,-1.8615721464157104,-0.2441406100988388,0.5493163466453552,66.66667175292969,85417.0,1.0
2256.2495951,1513.8389892578125,9345.533203125,-273009.40625,-262851.96875,-240171.03125,-282403.9375,-254864.703125,-420389.3125,0.396728515625,0.72265625,0.552978515625,-1.9531248807907104,-0.2746581733226776,0.6713866591453552,66.66667175292969,85418.0,1.0
2256.2496019,-8251.19140625,5263.2998046875,-273317.9375,-263193.21875,-241464.828125,-280402.75,-252676.109375,-420506.15625,0.3955078125,0.7236328125,0.552734375,-1.9836424589157104,-0.2746581733226776,0.6408690810203552,66.66667175292969,85419.0,1.0
2256.2520963,13012.560546875,5420.47705078125,-272221.0,-262393.5625,-240839.875,-283597.875,-256719.28125,-420085.21875,0.396240234375,0.723876953125,0.55224609375,-2.014159917831421,-0.1831054538488388,0.6103515028953552,66.66667175292969,85420.0,1.0
2256.2521024,26237.8203125,9479.5537109375,-271720.6875,-261903.1875,-239459.703125,-286160.53125,-259608.015625,-419881.46875,0.39892578125,0.724609375,0.55126953125,-1.9226073026657104,-0.2441406100988388,0.5798339247703552,66.66667175292969,85421.0,1.0
2256.254603,6074.39990234375,9895.9228515625,-272801.90625,-262684.96875,-239919.4375,-283190.90625,-255806.96875,-420327.0,0.3974609375,0.722900390625,0.54931640625,-1.9836424589157104,-0.1831054538488388,0.5798339247703552,66.66667175292969,85422.0,1.0
2256.2546087,-9443.6123046875,5933.13671875,-273405.9375,-263242.40625,-241357.8125,-280350.78125,-252556.84375,-420562.5625,0.397705078125,0.724609375,0.55419921875,-1.9531248807907104,-0.2441406100988388,0.6408690810203552,66.66667175292969,85423.0,1.0
2256.2683375,8742.125,5069.28662109375,-272443.5625,-262571.40625,-241092.28125,-282871.34375,-255826.28125,-420197.53125,0.398681640625,0.7236328125,0.551025390625,-1.9226073026657104,-0.2746581733226776,0.5798339247703552,66.66667175292969,85424.0,1.0
2256.2683497,26642.029296875,8796.126953125,-271681.625,-261895.046875,-239625.828125,-286135.78125,-259622.765625,-419887.8125,0.397216796875,0.723388671875,0.5498046875,-1.9531248807907104,-0.2746581733226776,0.5798339247703552,66.66667175292969,85425.0,1.0
2256.2714393,11177.6611328125,10211.88671875,-272580.96875,-262513.5625,-239702.4375,-283969.8125,-256757.0,-420258.78125,0.398193359375,0.72314453125,0.5517578125,-1.9836424589157104,-0.3356933295726776,0.6713866591453552,66.66667175292969,85426.0,1.0
2256.2714463,-9252.728515625,6534.845703125,-273451.25,-263258.9375,-241190.890625,-280465.5,-252641.25,-420604.875,0.398681640625,0.723388671875,0.552734375,-1.9836424589157104,-0.2746581733226776,0.7934569716453552,66.66667175292969,85427.0,1.0
2256.2714487,4119.96337890625,4651.21923828125,-272680.3125,-262754.875,-241301.125,-282160.9375,-254944.8125,-420312.25,0.3974609375,0.724365234375,0.553955078125,-2.014159917831421,-0.3051757514476776,0.6713866591453552,66.66667175292969,85428.0,1.0
2256.2752676,25556.5390625,8099.19970703125,-271699.0625,-261931.4375,-239843.265625,-285922.8125,-259410.25,-419915.0,0.397705078125,0.723388671875,0.553466796875,-2.075195074081421,-0.3051757514476776,0.7019042372703552,66.66667175292969,85429.0,1.0
2256.2840085,15549.0361328125,10442.3779296875,-272363.875,-262350.21875,-239537.578125,-284694.1875,-257653.21875,-420193.3125,0.398193359375,0.722412109375,0.552001953125,-1.9226073026657104,-0.3356933295726776,0.6408690810203552,66.66667175292969,85430.0,1.0
2256.2933343,-8241.177734375,7361.14501953125,-273436.6875,-263229.1875,-240975.6875,-280771.28125,-252959.703125,-420625.6875,0.397216796875,0.721435546875,0.552978515625,-1.8920897245407104,-0.2746581733226776,0.6408690810203552,66.66667175292969,85431.0,1.0
2256.293341,-26.10683822631836,4692.25732421875,-272904.09375,-262921.875,-241456.609375,-281543.03125,-254163.671875,-420421.5,0.398193359375,0.721923828125,0.551513671875,-1.8310545682907104,-0.1831054538488388,0.7324218153953552,66.66667175292969,85432.0,1.0
2256.2958363,23692.939453125,7310.7197265625,-271781.21875,-262017.078125,-240106.5625,-285532.46875,-258976.4375,-419972.9375,0.397705078125,0.72265625,0.5537109375,-1.8005369901657104,-0.1831054538488388,0.6103515028953552,66.66667175292969,85433.0,1.0
2256.2958421,19832.97265625,10412.6943359375,-272167.5625,-262208.78125,-239436.453125,-285312.53125,-258431.59375,-420136.90625,0.396728515625,0.72119140625,0.554931640625,-1.8615721464157104,-0.1525878757238388,0.6103515028953552,66.66667175292969,85434.0,1.0
2256.3065036,-5535.99072265625,8096.875,-273361.5,-263155.9375,-240725.34375,-281253.53125,-253498.390625,-420622.46875,0.397705078125,0.7216796875,0.552490234375,-1.9531248807907104,-0.2746581733226776,0.6103515028953552,66.66667175292969,85435.0,1.0
2256.3164356,-3645.74853515625,4596.14453125,-273105.78125,-263067.25,-241548.078125,-281040.03125,-253511.078125,-420520.5625,0.397705078125,0.72509765625,0.552001953125,-1.9836424589157104,-0.3051757514476776,0.6103515028953552,66.66667175292969,85436.0,1.0
2256.3164418,20466.509765625,6556.92919921875,-271921.3125,-262145.90625,-240392.3125,-284978.0625,-258335.484375,-420054.3125,0.3984375,0.724609375,0.55126953125,-2.044677495956421,-0.2746581733226776,0.6713866591453552,66.66667175292969,85437.0,1.0
2256.316444,22831.32421875,10273.041015625,-271998.46875,-262093.171875,-239401.140625,-285789.59375,-259048.859375,-420089.96875,0.398681640625,0.72412109375,0.550537109375,-1.9226073026657104,-0.1220703050494194,0.6103515028953552,66.66667175292969,85438.0,1.0
2256.3190091,-2280.59326171875,8855.8505859375,-273227.90625,-263038.375,-240455.34375,-281886.0,-254229.375,-420592.0,0.398681640625,0.72265625,0.550537109375,-1.9836424589157104,-0.1525878757238388,0.7324218153953552,66.66667175292969,85439.0,1.0
2256.321505,-6616.47412109375,5024.1357421875,-273272.96875,-263181.25,-241565.15625,-280676.5,-253022.46875,-420604.34375,0.39892578125,0.723388671875,0.55224609375,-2.014159917831421,-0.2136230319738388,0.7324218153953552,66.66667175292969,85440.0,1.0
2256.3252624,16812.0,5934.65673828125,-272102.0,-262301.03125,-240677.875,-284306.59375,-257541.015625,-420150.0625,0.39794921875,0.723388671875,0.55224609375,-1.9836424589157104,-0.2441406100988388,0.6408690810203552,66.66667175292969,85441.0,1.0
2256.3340071,25416.52734375,9856.76171875,-271860.15625,-262002.515625,-239438.15625,-286127.90625,-259500.28125,-420052.6875,0.397216796875,0.722900390625,0.553955078125,-1.9226073026657104,-0.2441406100988388,0.7019042372703552,66.66667175292969,85442.0,1.0
2256.3383324,2408.981689453125,9458.185546875,-273043.28125,-262885.21875,-240183.28125,-282640.25,-255118.703125,-420538.0,0.39892578125,0.721435546875,0.553955078125,-1.9836424589157104,-0.1525878757238388,0.6713866591453552,66.66667175292969,85443.0,1.0
2256.3383379,-8473.8154296875,5372.8232421875,-273408.875,-263270.40625,-241512.3125,-280469.4375,-252717.78125,-420680.5,0.397705078125,0.722412109375,0.55126953125,-1.9226073026657104,-0.1831054538488388,0.6713866591453552,66.66667175292969,85444.0,1.0
2256.3479711,12310.8046875,5334.8251953125,-272330.90625,-262491.5625,-240952.078125,-283552.8125,-256634.421875,-420270.46875,0.397216796875,0.722412109375,0.552978515625,-1.9531248807907104,-0.3051757514476776,0.6713866591453552,66.66667175292969,85445.0,1.0
2256.3533655,26323.025390625,9383.173828125,-271786.59375,-261969.34375,-239548.578125,-286234.65625,-259680.703125,-420048.40625,0.397216796875,0.72265625,0.550537109375,-1.9836424589157104,-0.3051757514476776,0.5187987685203552,66.66667175292969,85446.0,1.0
2256.3533736,6949.78369140625,9967.8955078125,-272835.78125,-262721.6875,-239939.1875,-283409.125,-256047.828125,-420480.0625,0.3984375,0.720703125,0.55322265625,-2.075195074081421,-0.2746581733226776,0.7324218153953552,66.66667175292969,85447.0,1.0
2256.3552733,-9526.939453125,6044.00146484375,-273494.15625,-263318.5,-241395.984375,-280437.15625,-252626.40625,-420739.0625,0.400146484375,0.7216796875,0.55322265625,-2.075195074081421,-0.2136230319738388,0.6408690810203552,66.66667175292969,85448.0,1.0
2256.3645965,7941.03857421875,5009.65185546875,-272564.4375,-262677.90625,-241201.0,-282818.34375,-255732.9375,-420387.78125,0.3984375,0.721923828125,0.551513671875,-2.105712652206421,-0.3356933295726776,0.6408690810203552,66.66667175292969,85449.0,1.0
2256.3646031,26608.501953125,8667.470703125,-271757.71875,-261970.421875,-239729.625,-286194.4375,-259675.515625,-420060.28125,0.39697265625,0.7236328125,0.5537109375,-2.014159917831421,-0.2441406100988388,0.6103515028953552,66.66667175292969,85450.0,1.0
2256.3670919,12126.2685546875,10265.798828125,-272616.375,-262553.15625,-239734.265625,-284191.71875,-257002.6875,-420415.21875,0.398681640625,0.72216796875,0.554931640625,-1.9836424589157104,-0.3051757514476776,0.6713866591453552,66.66667175292969,85451.0,1.0
2256.3670978,-9064.884765625,6667.88330078125,-273531.0,-263328.78125,-241222.359375,-280591.46875,-252758.015625,-420780.5625,0.398681640625,0.7216796875,0.553466796875,-1.9226073026657104,-0.2441406100988388,0.6713866591453552,66.66667175292969,85452.0,1.0
2256.3777661,3338.09912109375,4605.89013671875,-272801.0,-262858.9375,-241403.046875,-282124.28125,-254868.8125,-420501.96875,0.3984375,0.72216796875,0.55322265625,-2.014159917831421,-0.2441406100988388,0.7629393935203552,66.66667175292969,85453.0,1.0
2256.3808454,25267.6640625,7944.70458984375,-271789.09375,-262016.734375,-239959.9375,-285950.25,-259424.109375,-420093.90625,0.397216796875,0.722412109375,0.553955078125,-1.9836424589157104,-0.2746581733226776,0.7019042372703552,66.66667175292969,85454.0,1.0
2256.3808514,16335.638671875,10442.3779296875,-272404.125,-262394.21875,-239582.90625,-284899.46875,-257879.515625,-420350.78125,0.397216796875,0.722900390625,0.554443359375,-2.075195074081421,-0.3051757514476776,0.6408690810203552,66.66667175292969,85455.0,1.0
2256.3827798,-7880.2421875,7498.2060546875,-273504.0,-263289.4375,-240999.203125,-280927.1875,-253113.484375,-420794.21875,0.397705078125,0.721435546875,0.553955078125,-1.9226073026657104,-0.1220703050494194,0.7324218153953552,66.66667175292969,85456.0,1.0
2256.3915068,-765.9495849609375,4689.21728515625,-273019.96875,-263020.78125,-241544.859375,-281518.34375,-254100.453125,-420606.5625,0.398681640625,0.720703125,0.555419921875,-1.9226073026657104,-0.1831054538488388,0.7324218153953552,66.66667175292969,85457.0,1.0
2256.3958532,23190.740234375,7165.791015625,-271881.53125,-262110.0625,-240225.46875,-285521.375,-258942.828125,-420153.09375,0.398681640625,0.721923828125,0.55224609375,-2.014159917831421,-0.2136230319738388,0.6713866591453552,66.66667175292969,85458.0,1.0
2256.3958593,20479.02734375,10378.98828125,-272211.71875,-262256.78125,-239492.15625,-285491.78125,-258628.828125,-420294.1875,0.39697265625,0.72412109375,0.551025390625,-1.9836424589157104,-0.2746581733226776,0.6103515028953552,66.66667175292969,85459.0,1.0
2256.4040075,-4973.173828125,8221.0615234375,-273417.8125,-263207.71875,-240744.484375,-281440.125,-253690.25,-420785.1875,0.398681640625,0.72265625,0.55224609375,-2.014159917831421,-0.2136230319738388,0.7019042372703552,66.66667175292969,85460.0,1.0
2256.4065053,-4255.7724609375,4615.09912109375,-273215.65625,-263160.78125,-241623.625,-281044.0625,-253479.875,-420703.125,0.3974609375,0.7236328125,0.552978515625,-2.075195074081421,-0.2441406100988388,0.6713866591453552,66.66667175292969,85461.0,1.0
2256.4127594,19777.80859375,6423.98095703125,-272029.78125,-262243.8125,-240511.671875,-284942.09375,-258269.234375,-420237.65625,0.3974609375,0.724609375,0.553955078125,-1.9226073026657104,-0.2746581733226776,0.6713866591453552,66.66667175292969,85462.0,1.0
2256.4170959,23290.51953125,10209.6513671875,-272049.4375,-262146.0,-239471.6875,-285942.21875,-259213.109375,-420250.0,0.398193359375,0.72216796875,0.5517578125,-1.7700194120407104,-0.3356933295726776,0.7019042372703552,66.66667175292969,85463.0,1.0
2256.4171018,-1590.4608154296875,8977.623046875,-273277.4375,-263086.84375,-240474.5625,-282089.9375,-254444.140625,-420753.625,0.398193359375,0.72119140625,0.550537109375,-1.9531248807907104,-0.2441406100988388,0.7019042372703552,66.66667175292969,85464.0,1.0
2256.4252583,-7304.4609375,5115.3310546875,-273391.53125,-263282.65625,-241630.234375,-280673.375,-252985.109375,-420793.34375,0.399169921875,0.722412109375,0.552490234375,-1.9836424589157104,-0.1525878757238388,0.5798339247703552,66.66667175292969,85465.0,1.0
2256.4283329,15768.3515625,5876.09521484375,-272236.75,-262420.75,-240797.859375,-284208.0625,-257405.296875,-420346.21875,0.397705078125,0.722900390625,0.552734375,-1.9531248807907104,-0.2136230319738388,0.6103515028953552,66.66667175292969,85466.0,1.0
2256.4283376,25558.23828125,9806.962890625,-271929.71875,-262073.5,-239522.109375,-286218.21875,-259598.453125,-420223.1875,0.39697265625,0.722412109375,0.55419921875,-1.9836424589157104,-0.3356933295726776,0.6713866591453552,66.66667175292969,85467.0,1.0
2256.4365067,3154.45703125,9565.474609375,-273086.84375,-262930.1875,-240208.9375,-282848.71875,-255345.984375,-420698.84375,0.39794921875,0.719970703125,0.552001953125,-2.014159917831421,-0.3051757514476776,0.7019042372703552,66.66667175292969,85468.0,1.0
2256.4390216,-8743.287109375,5465.27001953125,-273501.40625,-263349.6875,-241566.578125,-280536.5,-252762.921875,-420857.53125,0.397705078125,0.7216796875,0.55078125,-1.8615721464157104,-0.2746581733226776,0.6408690810203552,66.66667175292969,85469.0,1.0
2256.4427541,11461.4384765625,5251.6767578125,-272446.5,-262592.0625,-241069.5625,-283507.125,-256548.953125,-420455.03125,0.398193359375,0.7216796875,0.5517578125,-1.9836424589157104,-0.2746581733226776,0.5493163466453552,66.66667175292969,85470.0,1.0
2256.455853,26400.361328125,9274.365234375,-271851.0625,-262032.90625,-239646.828125,-286331.75,-259776.375,-420211.75,0.3984375,0.7236328125,0.548828125,-1.9226073026657104,-0.3967284858226776,0.6103515028953552,66.66667175292969,85471.0,1.0
2256.4558599,7804.69287109375,10051.6689453125,-272871.28125,-262758.96875,-239969.953125,-283641.3125,-256299.15625,-420632.5,0.398681640625,0.7236328125,0.55322265625,-1.9531248807907104,-0.4272460639476776,0.7629393935203552,66.66667175292969,85472.0,1.0
2256.4583529,-9634.0498046875,6174.89306640625,-273578.46875,-263390.1875,-241437.5625,-280536.125,-252706.6875,-420910.8125,0.399658203125,0.722412109375,0.552978515625,-1.9531248807907104,-0.3967284858226776,0.6713866591453552,66.66667175292969,85473.0,1.0
2256.4583594,7016.74951171875,4961.46142578125,-272682.71875,-262778.375,-241310.078125,-282771.84375,-255644.421875,-420571.875,0.3974609375,0.723388671875,0.55029296875,-1.8920897245407104,-0.3356933295726776,0.7019042372703552,66.66667175292969,85474.0,1.0
2256.4602581,26430.3125,8556.337890625,-271833.0625,-262041.671875,-239835.578125,-286248.0,-259720.21875,-420226.84375,0.398193359375,0.72216796875,0.551513671875,-1.9531248807907104,-0.3051757514476776,0.6713866591453552,66.66667175292969,85475.0,1.0
2256.4690034,12887.748046875,10325.43359375,-272651.59375,-262590.71875,-239771.375,-284411.65625,-257242.3125,-420566.0625,0.3984375,0.72314453125,0.552490234375,-1.9226073026657104,-0.2746581733226776,0.6713866591453552,66.66667175292969,85476.0,1.0
2256.4758377,-8974.3154296875,6822.1103515625,-273603.34375,-263390.8125,-241251.953125,-280722.53125,-252877.71875,-420946.3125,0.398193359375,0.722900390625,0.55078125,-1.9531248807907104,-0.2746581733226776,0.6713866591453552,66.66667175292969,85477.0,1.0
2256.4758436,2484.530517578125,4580.85595703125,-272916.34375,-262957.125,-241500.234375,-282090.84375,-254793.359375,-420686.125,0.39892578125,0.722900390625,0.549560546875,-1.8920897245407104,-0.1220703050494194,0.6408690810203552,66.66667175292969,85478.0,1.0
2256.4777505,24895.10546875,7829.458984375,-271876.15625,-262098.09375,-240072.671875,-285969.21875,-259425.4375,-420267.71875,0.396728515625,0.7236328125,0.55078125,-1.8615721464157104,-0.1831054538488388,0.7324218153953552,66.66667175292969,85479.0,1.0
2256.4815175,17038.109375,10486.9921875,-272441.03125,-262433.71875,-239628.0625,-285101.0,-258099.8125,-420502.84375,0.396484375,0.72216796875,0.55126953125,-1.9531248807907104,-0.2441406100988388,0.6408690810203552,66.66667175292969,85480.0,1.0
2256.4852541,-7557.9296875,7657.88671875,-273569.4375,-263346.84375,-241023.34375,-281095.0,-253278.53125,-420959.90625,0.396484375,0.72265625,0.54931640625,-1.9836424589157104,-0.3662109076976776,0.6713866591453552,66.66667175292969,85481.0,1.0
2256.4995826,-1521.17041015625,4705.4892578125,-273135.03125,-263118.5,-241634.625,-281511.375,-254054.046875,-420792.875,0.399658203125,0.72216796875,0.554443359375,-1.8920897245407104,-0.2441406100988388,0.6408690810203552,66.66667175292969,85482.0,1.0
2256.499589,22628.548828125,7048.7568359375,-271978.375,-262198.65625,-240344.46875,-285511.8125,-258908.21875,-420332.34375,0.397705078125,0.72265625,0.552001953125,-1.9531248807907104,-0.2746581733226776,0.7324218153953552,66.66667175292969,85483.0,1.0
2256.5015005,21051.857421875,10378.630859375,-272254.1875,-262301.65625,-239551.078125,-285670.875,-258823.921875,-420449.84375,0.399169921875,0.72119140625,0.5537109375,-1.9531248807907104,-0.2746581733226776,0.7019042372703552,66.66667175292969,85484.0,1.0
2256.5045922,-4428.685546875,8382.8876953125,-273471.09375,-263256.09375,-240764.421875,-281637.09375,-253893.484375,-420945.875,0.397705078125,0.7236328125,0.55419921875,-2.014159917831421,-0.3967284858226776,0.6713866591453552,66.66667175292969,85485.0,1.0
2256.5045972,-4805.98291015625,4707.63525390625,-273322.25,-263251.53125,-241698.453125,-281057.65625,-253459.578125,-420885.4375,0.39697265625,0.7236328125,0.554931640625,-1.9531248807907104,-0.3356933295726776,0.7629393935203552,66.66667175292969,85486.0,1.0
2256.5091607,19147.66796875,6324.91796875,-272134.75,-262338.9375,-240631.921875,-284908.21875,-258203.703125,-420419.78125,0.397705078125,0.721435546875,0.5517578125,-1.9531248807907104,-0.2441406100988388,0.6713866591453552,66.66667175292969,85487.0,1.0
2256.5127568,23767.68359375,10169.955078125,-272099.59375,-262198.65625,-239544.28125,-286092.5,-259374.9375,-420409.40625,0.399658203125,0.72216796875,0.552490234375,-1.8920897245407104,-0.3662109076976776,0.7019042372703552,66.66667175292969,85488.0,1.0
2256.521503,-788.2119750976562,9097.16015625,-273320.0,-263127.34375,-240494.859375,-282313.625,-254681.875,-420909.375,0.397705078125,0.720458984375,0.554931640625,-1.8920897245407104,-0.3051757514476776,0.7629393935203552,66.66667175292969,85489.0,1.0
2256.524604,-7483.45361328125,5164.05810546875,-273479.0625,-263356.84375,-241692.640625,-280751.59375,-253038.65625,-420966.25,0.39794921875,0.7197265625,0.5556640625,-2.075195074081421,-0.2136230319738388,0.6713866591453552,66.66667175292969,85490.0,1.0
2256.5246113,15225.115234375,5735.36865234375,-272335.8125,-262508.71875,-240918.46875,-284204.15625,-257364.53125,-420525.03125,0.39697265625,0.72021484375,0.553466796875,-2.075195074081421,-0.1831054538488388,0.6408690810203552,66.66667175292969,85491.0,1.0
2256.5377608,25859.806640625,9704.0546875,-271985.0625,-262129.5625,-239609.546875,-286343.84375,-259724.78125,-420384.5625,0.3974609375,0.718994140625,0.554931640625,-2.014159917831421,-0.2441406100988388,0.7324218153953552,66.66667175292969,85492.0,1.0
2256.5427542,4051.56689453125,9672.13671875,-273128.40625,-262972.5,-240231.734375,-283073.40625,-255586.9375,-420856.625,0.39892578125,0.7197265625,0.5546875,-1.7700194120407104,-0.2441406100988388,0.6408690810203552,66.66667175292969,85493.0,1.0
2256.5458386,-9130.77734375,5608.41064453125,-273610.3125,-263442.5,-241614.046875,-280570.28125,-252769.546875,-421042.96875,0.398681640625,0.720703125,0.552978515625,-1.9531248807907104,-0.2136230319738388,0.5493163466453552,66.66667175292969,85494.0,1.0
2256.5458444,10404.201171875,5198.83740234375,-272582.5,-262710.71875,-241182.578125,-283401.0,-256400.8125,-420649.9375,0.3984375,0.721923828125,0.550048828125,-1.9836424589157104,-0.3356933295726776,0.5798339247703552,66.66667175292969,85495.0,1.0
2256.5477571,26453.916015625,9159.56640625,-271924.53125,-262106.046875,-239740.796875,-286395.96875,-259844.234375,-420381.4375,0.397216796875,0.72314453125,0.552490234375,-1.9836424589157104,-0.3967284858226776,0.7019042372703552,66.66667175292969,85496.0,1.0
2256.5501229,8761.1689453125,10121.138671875,-272906.6875,-262796.90625,-239991.40625,-283864.84375,-256548.421875,-420785.28125,0.397216796875,0.72216796875,0.553466796875,-1.9531248807907104,-0.2746581733226776,0.7324218153953552,66.66667175292969,85497.0,1.0
2256.5577494,-9600.7001953125,6251.1572265625,-273663.875,-263463.96875,-241472.875,-280638.59375,-252794.75,-421085.4375,0.3984375,0.723876953125,0.54931640625,-1.9531248807907104,-0.3356933295726776,0.7019042372703552,66.66667175292969,85498.0,1.0
2256.5608304,6055.17724609375,4800.79736328125,-272803.15625,-262883.34375,-241415.921875,-282725.25,-255556.625,-420760.78125,0.39892578125,0.722900390625,0.552001953125,-1.9226073026657104,-0.3051757514476776,0.7324218153953552,66.66667175292969,85499.0,1.0
2256.560836,26082.609375,8439.9296875,-271913.625,-262120.265625,-239943.578125,-286297.59375,-259760.453125,-420400.5625,0.3984375,0.721923828125,0.55126953125,-1.9836424589157104,-0.2746581733226776,0.7019042372703552,66.66667175292969,85500.0,1.0
2256.5715061,13490.619140625,10394.1875,-272687.8125,-262631.5,-239806.875,-284631.15625,-257483.25,-420721.4375,0.396484375,0.723388671875,0.55029296875,-2.075195074081421,-0.3051757514476776,0.6713866591453552,66.66667175292969,85501.0,1.0
2256.5745867,-8968.146484375,7062.97265625,-273677.8125,-263457.78125,-241279.5,-280863.8125,-253010.859375,-421118.40625,0.398193359375,0.722412109375,0.5537109375,-1.9531248807907104,-0.3967284858226776,0.7019042372703552,66.66667175292969,85502.0,1.0
2256.5745922,1753.807373046875,4755.736328125,-273033.53125,-263057.875,-241596.171875,-282059.4375,-254721.296875,-420871.375,0.400390625,0.721435546875,0.55322265625,-1.7395018339157104,-0.3356933295726776,0.6408690810203552,66.66667175292969,85503.0,1.0
2256.5764994,24692.2421875,7684.61962890625,-271966.28125,-262183.21875,-240188.734375,-285981.8125,-259420.890625,-420443.40625,0.3974609375,0.72216796875,0.5517578125,-1.8920897245407104,-0.2441406100988388,0.6103515028953552,66.66667175292969,85504.0,1.0
2256.5852554,18023.017578125,10465.35546875,-272479.3125,-262476.90625,-239675.703125,-285299.5625,-258319.21875,-420657.53125,0.39794921875,0.721923828125,0.54833984375,-1.8615721464157104,-0.2441406100988388,0.6408690810203552,66.66667175292969,85505.0,1.0
2256.5883542,-6874.94970703125,7755.6982421875,-273627.84375,-263400.21875,-241042.921875,-281264.4375,-253448.3125,-421122.09375,0.39892578125,0.720458984375,0.551025390625,-1.9531248807907104,-0.2441406100988388,0.5493163466453552,66.66667175292969,85506.0,1.0
2256.5883641,-2159.9833984375,4539.90771484375,-273243.65625,-263211.46875,-241717.671875,-281502.4375,-254007.828125,-420974.03125,0.397705078125,0.7216796875,0.549072265625,-1.8920897245407104,-0.1831054538488388,0.5798339247703552,66.66667175292969,85507.0,1.0
2256.5902727,21925.990234375,6901.95068359375,-272076.71875,-262289.5,-240463.296875,-285496.78125,-258867.71875,-420511.15625,0.39599609375,0.722412109375,0.552490234375,-1.9836424589157104,-0.2746581733226776,0.6408690810203552,66.66667175292969,85508.0,1.0
2256.6040106,21428.439453125,10381.1337890625,-272298.09375,-262349.3125,-239611.78125,-285843.59375,-259011.765625,-420607.0,0.398193359375,0.722412109375,0.5517578125,-2.075195074081421,-0.2136230319738388,0.6713866591453552,66.66667175292969,85509.0,1.0
2256.6065071,-4048.616455078125,8534.5224609375,-273523.75,-263305.0,-240782.5625,-281835.125,-254099.109375,-421107.0625,0.399169921875,0.7236328125,0.55224609375,-2.166747808456421,-0.3051757514476776,0.5798339247703552,66.66667175292969,85510.0,1.0
2256.609101,-5469.3828125,4887.8798828125,-273431.21875,-263343.34375,-241769.171875,-281071.15625,-253440.71875,-421066.90625,0.39794921875,0.722900390625,0.55078125,-1.9226073026657104,-0.2136230319738388,0.6713866591453552,66.66667175292969,85511.0,1.0
2256.6115171,18547.8359375,6227.73291015625,-272246.59375,-262438.90625,-240752.625,-284865.5,-258128.859375,-420604.34375,0.398681640625,0.721435546875,0.550537109375,-2.014159917831421,-0.1831054538488388,0.6713866591453552,66.66667175292969,85512.0,1.0
2256.6208539,24375.5625,10056.408203125,-272149.03125,-262250.34375,-239617.0625,-286233.25,-259526.296875,-420567.6875,0.396728515625,0.72265625,0.55322265625,-1.9226073026657104,-0.2136230319738388,0.7324218153953552,66.66667175292969,85513.0,1.0
2256.6208612,228.79246520996094,9163.232421875,-273360.25,-263167.125,-240510.953125,-282530.34375,-254913.34375,-421064.3125,0.397216796875,0.72314453125,0.553466796875,-1.9226073026657104,-0.2136230319738388,0.7934569716453552,66.66667175292969,85514.0,1.0
2256.6227542,-7830.88916015625,5064.7265625,-273582.15625,-263444.75,-241751.65625,-280789.5,-253047.59375,-421147.3125,0.396240234375,0.722900390625,0.551513671875,-1.8615721464157104,-0.2136230319738388,0.6713866591453552,66.66667175292969,85515.0,1.0
2256.626506,14146.330078125,5552.26318359375,-272456.0625,-262614.78125,-241036.125,-284141.28125,-257264.75,-420713.21875,0.39697265625,0.723388671875,0.55224609375,-1.8615721464157104,-0.1220703050494194,0.7019042372703552,66.66667175292969,85516.0,1.0
2256.6358428,25934.640625,9616.16796875,-272035.21875,-262181.59375,-239693.59375,-286474.90625,-259864.171875,-420540.84375,0.396728515625,0.72265625,0.554443359375,-1.9531248807907104,-0.1831054538488388,0.6713866591453552,66.66667175292969,85517.0,1.0
2256.6358496,4668.7431640625,9774.150390625,-273157.46875,-263002.96875,-240249.53125,-283317.40625,-255849.875,-421003.53125,0.39794921875,0.723876953125,0.5537109375,-2.044677495956421,-0.2441406100988388,0.6408690810203552,66.66667175292969,85518.0,1.0
2256.6377543,-9402.6640625,5790.443359375,-273686.03125,-263506.6875,-241657.78125,-280677.125,-252856.53125,-421209.15625,0.39697265625,0.722900390625,0.5517578125,-2.075195074081421,-0.2441406100988388,0.6713866591453552,66.66667175292969,85519.0,1.0
2256.6415024,9810.091796875,5196.42333984375,-272683.59375,-262799.03125,-241294.875,-283389.1875,-256348.6875,-420829.375,0.3974609375,0.721923828125,0.552734375,-1.9531248807907104,-0.1831054538488388,0.6408690810203552,66.66667175292969,85520.0,1.0
2256.6483484,26575.2421875,9005.33984375,-271990.6875,-262170.78125,-239843.265625,-286482.0625,-259922.375,-420547.71875,0.399169921875,0.723388671875,0.55322265625,-1.9531248807907104,-0.2746581733226776,0.7019042372703552,66.66667175292969,85521.0,1.0
2256.6483548,9743.4833984375,10146.619140625,-272942.8125,-262836.0625,-240024.578125,-284093.8125,-256796.4375,-420941.5625,0.399169921875,0.721923828125,0.554443359375,-1.9226073026657104,-0.3051757514476776,0.6713866591453552,66.66667175292969,85522.0,1.0
2256.6665168,-9523.810546875,6333.5908203125,-273746.9375,-263535.3125,-241509.53125,-280744.09375,-252884.78125,-421259.3125,0.400390625,0.722412109375,0.5576171875,-1.8920897245407104,-0.1831054538488388,0.6408690810203552,66.66667175292969,85523.0,1.0
2256.6695829,5147.16015625,4719.61572265625,-272923.125,-262986.34375,-241520.625,-282667.15625,-255456.9375,-420946.9375,0.398681640625,0.723876953125,0.552978515625,-1.8615721464157104,-0.1220703050494194,0.7019042372703552,66.66667175292969,85524.0,1.0
2256.6695888,25810.6328125,8310.6474609375,-271994.53125,-262197.5,-240052.921875,-286326.21875,-259779.234375,-420571.34375,0.398681640625,0.7216796875,0.550048828125,-1.8615721464157104,-0.2136230319738388,0.6408690810203552,66.66667175292969,85525.0,1.0
2256.6715035,14241.458984375,10428.3408203125,-272724.375,-262671.0,-239847.8125,-284840.90625,-257715.890625,-420875.0625,0.396240234375,0.721435546875,0.5517578125,-1.8310545682907104,-0.1831054538488388,0.6408690810203552,66.66667175292969,85526.0,1.0
2256.6740127,-8803.01171875,7211.38818359375,-273748.71875,-263519.125,-241306.859375,-281000.96875,-253142.375,-421286.40625,0.397705078125,0.72119140625,0.553466796875,-1.9836424589157104,-0.2441406100988388,0.7324218153953552,66.66667175292969,85527.0,1.0
2256.6765192,931.5313720703125,4761.36865234375,-273147.90625,-263155.5,-241689.0625,-282022.78125,-254645.296875,-421055.5625,0.397705078125,0.721923828125,0.55126953125,-1.9531248807907104,-0.2136230319738388,0.7629393935203552,66.66667175292969,85528.0,1.0
2256.6790106,24260.49609375,7566.78125,-272055.96875,-262266.875,-240301.828125,-285978.15625,-259398.4375,-420617.46875,0.3984375,0.721435546875,0.553466796875,-1.9531248807907104,-0.2746581733226776,0.6408690810203552,66.66667175292969,85529.0,1.0
2256.6827533,18702.8671875,10469.37890625,-272518.03125,-262519.03125,-239724.078125,-285485.78125,-258525.03125,-420811.5,0.396728515625,0.72119140625,0.553466796875,-2.014159917831421,-0.3051757514476776,0.5798339247703552,66.66667175292969,85530.0,1.0
2256.6870956,-6436.498046875,7904.11376953125,-273687.28125,-263453.40625,-241062.140625,-281435.9375,-253621.765625,-421285.53125,0.39990234375,0.72119140625,0.55126953125,-2.014159917831421,-0.2746581733226776,0.6713866591453552,66.66667175292969,85531.0,1.0
2256.6871018,-2823.025390625,4589.796875,-273353.53125,-263304.1875,-241796.984375,-281488.84375,-253957.21875,-421154.8125,0.3994140625,0.721435546875,0.552001953125,-2.075195074081421,-0.2441406100988388,0.8239745497703552,66.66667175292969,85532.0,1.0
2256.6952596,21347.884765625,6778.47998046875,-272177.84375,-262381.25,-240580.59375,-285465.6875,-258809.875,-420690.34375,0.39794921875,0.723876953125,0.5537109375,-2.075195074081421,-0.2136230319738388,0.7324218153953552,66.66667175292969,85533.0,1.0
2256.7095914,22018.97265625,10348.4111328125,-272340.0,-262395.09375,-239670.34375,-286002.84375,-259187.53125,-420761.25,0.39794921875,0.7216796875,0.5556640625,-2.014159917831421,-0.3051757514476776,0.7629393935203552,66.66667175292969,85534.0,1.0
2256.7095983,-3360.09326171875,8691.2529296875,-273569.09375,-263348.71875,-240795.4375,-282029.0625,-254303.140625,-421263.34375,0.398193359375,0.723876953125,0.55322265625,-1.9531248807907104,-0.1831054538488388,0.6713866591453552,66.66667175292969,85535.0,1.0
2256.7120826,-5997.3310546875,4983.90283203125,-273536.90625,-263433.84375,-241836.765625,-281078.9375,-253415.78125,-421247.625,0.3984375,0.72216796875,0.55224609375,-2.014159917831421,-0.2136230319738388,0.6713866591453552,66.66667175292969,85536.0,1.0
2256.7120883,17816.12890625,6145.03125,-272356.46875,-262537.96875,-240870.1875,-284813.1875,-258044.546875,-420787.4375,0.3984375,0.72265625,0.552001953125,-1.9836424589157104,-0.2441406100988388,0.6713866591453552,66.66667175292969,85537.0,1.0
2256.7233417,24851.474609375,10013.939453125,-272195.90625,-262300.5,-239690.28125,-286381.03125,-259686.78125,-420723.875,0.39892578125,0.723388671875,0.554443359375,-1.9836424589157104,-0.3051757514476776,0.6408690810203552,66.66667175292969,85538.0,1.0
2256.7233488,1073.6884765625,9315.3134765625,-273400.21875,-263206.75,-240527.40625,-282750.9375,-255148.9375,-421218.8125,0.3994140625,0.72265625,0.552734375,-1.9226073026657104,-0.2746581733226776,0.7019042372703552,66.66667175292969,85539.0,1.0
2256.7327415,-8072.556640625,5204.291015625,-273675.3125,-263523.59375,-241803.859375,-280838.40625,-253070.3125,-421322.1875,0.3984375,0.723388671875,0.5517578125,-1.9226073026657104,-0.3356933295726776,0.6408690810203552,66.66667175292969,85540.0,1.0
2256.7327463,13472.4697265625,5451.412109375,-272568.90625,-262714.90625,-241152.71875,-284091.3125,-257176.140625,-420898.9375,0.399169921875,0.72314453125,0.5517578125,-2.044677495956421,-0.2441406100988388,0.7629393935203552,66.66667175292969,85541.0,1.0
2256.7327485,26063.744140625,9535.791015625,-272107.125,-262253.5625,-239786.578125,-286553.5,-259942.578125,-420712.0625,0.3984375,0.72314453125,0.552001953125,-1.9836424589157104,-0.2441406100988388,0.6103515028953552,66.66667175292969,85542.0,1.0
2256.7358476,5557.27001953125,9864.80859375,-273197.78125,-263045.09375,-240277.234375,-283530.1875,-256083.40625,-421161.15625,0.39892578125,0.72412109375,0.55078125,-1.9531248807907104,-0.2136230319738388,0.5798339247703552,66.66667175292969,85543.0,1.0
2256.7358536,-9467.2158203125,5911.67919921875,-273776.96875,-263584.9375,-241704.4375,-280758.84375,-252920.90625,-421386.1875,0.3994140625,0.72412109375,0.55078125,-1.9226073026657104,-0.2136230319738388,0.6103515028953552,66.66667175292969,85544.0,1.0
2256.7377701,9056.2119140625,5143.494140625,-272802.53125,-262902.9375,-241407.4375,-283342.15625,-256262.9375,-421016.0625,0.39892578125,0.7236328125,0.5498046875,-1.8920897245407104,-0.1525878757238388,0.6103515028953552,66.66667175292969,85545.0,1.0
2256.7490053,26606.98046875,8889.9150390625,-272061.25,-262240.34375,-239945.71875,-286553.9375,-259989.515625,-420714.5625,0.400634765625,0.724365234375,0.55126953125,-1.8920897245407104,-0.1525878757238388,0.6408690810203552,66.66667175292969,85546.0,1.0
2256.7583745,10674.388671875,10208.310546875,-272976.6875,-262872.71875,-240056.5,-284314.75,-257038.015625,-421092.59375,0.3974609375,0.7236328125,0.5517578125,-1.8920897245407104,-0.3051757514476776,0.6713866591453552,66.66667175292969,85547.0,1.0
2256.7583809,-9386.9287109375,6485.93994140625,-273826.21875,-263603.96875,-241543.15625,-280856.03125,-252983.5,-421429.71875,0.3974609375,0.721923828125,0.552978515625,-1.8615721464157104,-0.2441406100988388,0.5798339247703552,66.66667175292969,85548.0,1.0
2256.7833342,4446.4775390625,4682.69091796875,-273042.03125,-263089.6875,-241624.25,-282626.375,-255375.125,-421134.34375,0.398193359375,0.722412109375,0.54931640625,-1.9531248807907104,-0.2441406100988388,0.5798339247703552,66.66667175292969,85549.0,1.0
2256.7833413,25666.240234375,8171.619140625,-272077.6875,-262277.875,-240163.0625,-286360.375,-259800.78125,-420745.3125,0.39794921875,0.72265625,0.55224609375,-1.9531248807907104,-0.2136230319738388,0.6713866591453552,66.66667175292969,85550.0,1.0
2256.7852533,15176.208984375,10449.2626953125,-272758.4375,-262709.71875,-239884.921875,-285048.15625,-257944.59375,-421027.65625,0.398681640625,0.72216796875,0.550048828125,-1.9531248807907104,-0.2136230319738388,0.6408690810203552,66.66667175292969,85551.0,1.0
2256.7889358,-8373.947265625,7342.01171875,-273816.03125,-263579.125,-241329.828125,-281149.65625,-253286.3125,-421453.4375,0.3974609375,0.7236328125,0.5517578125,-1.8615721464157104,-0.2136230319738388,0.6103515028953552,66.66667175292969,85552.0,1.0
2256.7889398,287.4434509277344,4739.5537109375,-273265.03125,-263255.90625,-241780.984375,-281999.90625,-254583.78125,-421241.96875,0.397705078125,0.721923828125,0.552734375,-1.8615721464157104,-0.2136230319738388,0.6408690810203552,66.66667175292969,85553.0,1.0
2256.788942,23871.84375,7414.87841796875,-272149.21875,-262353.15625,-240416.890625,-285978.15625,-259377.875,-420793.875,0.397216796875,0.7236328125,0.5498046875,-2.014159917831421,-0.2136230319738388,0.7324218153953552,66.66667175292969,85554.0,1.0
2256.7915144,19470.42578125,10449.9775390625,-272557.71875,-262562.375,-239775.75,-285673.625,-258731.015625,-420966.4375,0.39697265625,0.722412109375,0.55126953125,-1.9531248807907104,-0.3662109076976776,0.6713866591453552,66.66667175292969,85555.0,1.0
2256.7940116,-5838.8125,8042.42626953125,-273745.3125,-263507.0625,-241082.171875,-281615.53125,-253804.421875,-421449.21875,0.397705078125,0.721923828125,0.5546875,-1.9531248807907104,-0.2746581733226776,0.6408690810203552,66.66667175292969,85556.0,1.0
2256.7965015,-3417.134765625,4604.72802734375,-273467.0,-263402.0,-241878.25,-281484.5625,-253916.984375,-421339.96875,0.39697265625,0.72216796875,0.552978515625,-1.8920897245407104,-0.2136230319738388,0.6408690810203552,66.66667175292969,85557.0,1.0
2256.7990122,20728.205078125,6649.28662109375,-272283.96875,-262478.59375,-240701.125,-285433.65625,-258750.59375,-420872.90625,0.39892578125,0.72021484375,0.55419921875,-1.9226073026657104,-0.2136230319738388,0.6713866591453552,66.66667175292969,85558.0,1.0
2256.8015151,22566.501953125,10297.001953125,-272387.65625,-262445.625,-239736.15625,-286163.3125,-259362.40625,-420919.65625,0.397216796875,0.723876953125,0.55322265625,-1.9531248807907104,-0.3051757514476776,0.7019042372703552,66.66667175292969,85559.0,1.0
2256.8039976,-2642.155029296875,8809.716796875,-273616.84375,-263393.78125,-240812.25,-282235.21875,-254519.421875,-421421.78125,0.398193359375,0.720947265625,0.55126953125,-1.9226073026657104,-0.2136230319738388,0.7629393935203552,66.66667175292969,85560.0,1.0
2256.8077495,-6486.56591796875,5033.52392578125,-273640.53125,-263521.53125,-241901.140625,-281099.3125,-253404.15625,-421426.78125,0.3994140625,0.7216796875,0.552490234375,-1.9226073026657104,-0.2136230319738388,0.7934569716453552,66.66667175292969,85561.0,1.0
2256.8195756,17058.31640625,6025.8515625,-272469.46875,-262639.1875,-240989.09375,-284761.40625,-257958.09375,-420972.40625,0.399169921875,0.721923828125,0.550537109375,-1.8920897245407104,-0.3356933295726776,0.7629393935203552,66.66667175292969,85562.0,1.0
2256.8195807,25233.33203125,9923.7275390625,-272250.53125,-262358.1875,-239770.65625,-286516.84375,-259832.15625,-420885.96875,0.3984375,0.721435546875,0.552490234375,-1.9226073026657104,-0.2136230319738388,0.6103515028953552,66.66667175292969,85563.0,1.0
2256.8220836,1941.919677734375,9414.64453125,-273441.34375,-263248.21875,-240547.34375,-282978.8125,-255393.375,-421375.65625,0.39794921875,0.7216796875,0.55224609375,-2.014159917831421,-0.3051757514476776,0.7019042372703552,66.66667175292969,85564.0,1.0
2256.82209,-8378.685546875,5294.8603515625,-273777.0625,-263611.03125,-241861.265625,-280894.125,-253098.828125,-421503.9375,0.399169921875,0.72216796875,0.551025390625,-2.014159917831421,-0.3967284858226776,0.7324218153953552,66.66667175292969,85565.0,1.0
2256.8239965,12642.68359375,5384.8037109375,-272688.25,-262820.75,-241270.46875,-284030.34375,-257075.203125,-421086.9375,0.39892578125,0.7236328125,0.550537109375,-1.9531248807907104,-0.3051757514476776,0.6103515028953552,66.66667175292969,85566.0,1.0
2256.8329799,26219.3125,9450.8544921875,-272168.4375,-262315.96875,-239876.15625,-286645.59375,-260036.546875,-420875.21875,0.3984375,0.7236328125,0.552734375,-1.8920897245407104,-0.2746581733226776,0.6408690810203552,66.66667175292969,85567.0,1.0
2256.8370921,6468.41650390625,9960.9208984375,-273231.21875,-263081.03125,-240297.453125,-283757.5625,-256331.6875,-421312.625,0.3984375,0.723388671875,0.550048828125,-1.8920897245407104,-0.3051757514476776,0.6713866591453552,66.66667175292969,85568.0,1.0
2256.8370989,-9581.9248046875,6038.9052734375,-273866.0,-263661.09375,-241745.484375,-280843.96875,-252986.359375,-421561.6875,0.397705078125,0.7236328125,0.55517578125,-2.014159917831421,-0.1831054538488388,0.7324218153953552,66.66667175292969,85569.0,1.0
2256.8452513,8196.83203125,5093.87353515625,-272922.875,-263007.8125,-241518.65625,-283284.0625,-256162.359375,-421204.4375,0.397705078125,0.72314453125,0.552490234375,-1.9226073026657104,-0.1831054538488388,0.7324218153953552,66.66667175292969,85570.0,1.0
2256.8520852,26563.26171875,8782.0009765625,-272135.09375,-262313.28125,-240049.25,-286613.5625,-260043.515625,-420883.90625,0.398193359375,0.7216796875,0.55517578125,-1.9836424589157104,-0.3356933295726776,0.7019042372703552,66.66667175292969,85571.0,1.0
2256.8520924,11594.1181640625,10284.57421875,-273011.1875,-262911.15625,-240086.890625,-284540.75,-257286.65625,-421246.09375,0.39794921875,0.721923828125,0.552001953125,-1.9226073026657104,-0.3967284858226776,0.7324218153953552,66.66667175292969,85572.0,1.0
2256.854581,-9245.3076171875,6637.93212890625,-273905.34375,-263672.90625,-241574.71875,-280981.125,-253096.6875,-421602.8125,0.39892578125,0.724365234375,0.550048828125,-2.014159917831421,-0.3662109076976776,0.6713866591453552,66.66667175292969,85573.0,1.0
2256.8545865,3657.6396484375,4658.908203125,-273155.40625,-263187.34375,-241722.421875,-282587.65625,-255295.109375,-421317.875,0.398681640625,0.722412109375,0.552978515625,-1.8615721464157104,-0.2746581733226776,0.7934569716453552,66.66667175292969,85574.0,1.0
2256.8652525,25387.0234375,8042.24755859375,-272157.8125,-262353.875,-240272.140625,-286384.78125,-259810.25,-420914.3125,0.39892578125,0.72216796875,0.55419921875,-1.8310545682907104,-0.1831054538488388,0.6713866591453552,66.66667175292969,85575.0,1.0
2256.8683294,15923.919921875,10480.0185546875,-272796.25,-262750.3125,-239926.3125,-285252.875,-258169.453125,-421180.46875,0.396728515625,0.722900390625,0.552001953125,-1.8920897245407104,-0.1831054538488388,0.5798339247703552,66.66667175292969,85576.0,1.0
2256.868335,-8103.9384765625,7487.8349609375,-273885.3125,-263639.65625,-241353.34375,-281302.625,-253435.625,-421620.625,0.398193359375,0.723388671875,0.55224609375,-1.8615721464157104,-0.2441406100988388,0.6713866591453552,66.66667175292969,85577.0,1.0
2256.8702704,-468.4031677246094,4752.6962890625,-273380.96875,-263355.5,-241872.171875,-281976.21875,-254520.9375,-421427.78125,0.39794921875,0.7236328125,0.552001953125,-1.8615721464157104,-0.2136230319738388,0.7019042372703552,66.66667175292969,85578.0,1.0
2256.8790014,23405.853515625,7294.00048828125,-272248.375,-262446.40625,-240538.21875,-285973.34375,-259350.703125,-420976.09375,0.398193359375,0.723876953125,0.55126953125,-1.9226073026657104,-0.2441406100988388,0.7019042372703552,66.66667175292969,85579.0,1.0
2256.8815075,20128.103515625,10446.6689453125,-272603.3125,-262611.90625,-239832.625,-285857.71875,-258932.546875,-421125.3125,0.399169921875,0.722900390625,0.55224609375,-1.8615721464157104,-0.2746581733226776,0.6408690810203552,66.66667175292969,85580.0,1.0
2256.8840063,-5300.4033203125,8194.9541015625,-273803.15625,-263560.15625,-241101.21875,-281799.8125,-253993.078125,-421612.46875,0.398681640625,0.72265625,0.5546875,-1.9226073026657104,-0.2441406100988388,0.7629393935203552,66.66667175292969,85581.0,1.0
2256.8927576,-3985.4951171875,4649.43115234375,-273573.65625,-263493.0,-241953.171875,-281485.71875,-253883.28125,-421520.40625,0.399658203125,0.724853515625,0.552001953125,-1.9531248807907104,-0.3051757514476776,0.7629393935203552,66.66667175292969,85582.0,1.0
2256.8958314,20129.177734375,6518.57373046875,-272386.6875,-262572.125,-240820.5625,-285406.5,-258694.1875,-421053.5,0.397705078125,0.724609375,0.5537109375,-1.9836424589157104,-0.3051757514476776,0.7324218153953552,66.66667175292969,85583.0,1.0
2256.8958373,23145.322265625,10264.5478515625,-272432.0,-262493.8125,-239801.78125,-286329.15625,-259541.9375,-421075.6875,0.398193359375,0.722900390625,0.550537109375,-2.044677495956421,-0.2746581733226776,0.5493163466453552,66.66667175292969,85584.0,1.0
2256.9064962,-1874.953857421875,8992.46484375,-273664.5,-263440.96875,-240824.046875,-282440.78125,-254736.3125,-421581.375,0.39990234375,0.720947265625,0.551025390625,-1.9836424589157104,-0.2441406100988388,0.6408690810203552,66.66667175292969,85585.0,1.0
2256.9095835,-6930.11376953125,5161.64404296875,-273747.375,-263614.875,-241959.34375,-281121.21875,-253395.5625,-421612.5625,0.399169921875,0.72314453125,0.552490234375,-1.9531248807907104,-0.2441406100988388,0.7019042372703552,66.66667175292969,85586.0,1.0
2256.90959,16359.8681640625,5958.349609375,-272582.5,-262742.09375,-241103.1875,-284711.78125,-257873.78125,-421161.34375,0.39794921875,0.72265625,0.5537109375,-2.014159917831421,-0.1525878757238388,0.6408690810203552,66.66667175292969,85587.0,1.0
2256.9152507,25452.111328125,9890.916015625,-272312.21875,-262421.90625,-239845.3125,-286611.0625,-259931.9375,-421052.53125,0.39697265625,0.724365234375,0.552978515625,-1.9836424589157104,-0.2136230319738388,0.7019042372703552,66.66667175292969,85588.0,1.0
2256.9195769,2763.6591796875,9556.0869140625,-273480.65625,-263290.40625,-240561.90625,-283189.09375,-255624.03125,-421532.71875,0.39990234375,0.723388671875,0.5537109375,-1.9226073026657104,-0.2441406100988388,0.7324218153953552,66.66667175292969,85589.0,1.0
2256.9195823,-8645.119140625,5416.185546875,-273870.46875,-263691.21875,-241906.859375,-280948.125,-253130.828125,-421680.4375,0.3974609375,0.72314453125,0.553955078125,-1.9836424589157104,-0.3051757514476776,0.7324218153953552,66.66667175292969,85590.0,1.0
2256.9215073,11797.966796875,5290.30029296875,-272805.5625,-262924.03125,-241381.6875,-283971.0625,-256977.21875,-421273.28125,0.39892578125,0.72119140625,0.553466796875,-1.8920897245407104,-0.2136230319738388,0.7324218153953552,66.66667175292969,85591.0,1.0
2256.9302438,26317.66015625,9341.95703125,-272234.4375,-262382.59375,-239969.328125,-286735.53125,-260126.84375,-421041.25,0.399169921875,0.722900390625,0.552978515625,-1.9226073026657104,-0.3051757514476776,0.7019042372703552,66.66667175292969,85592.0,1.0
2256.9370934,7338.79345703125,10040.76171875,-273267.875,-263120.46875,-240322.03125,-283983.9375,-256579.4375,-421467.1875,0.399169921875,0.723388671875,0.553955078125,-1.9836424589157104,-0.3051757514476776,0.7324218153953552,66.66667175292969,85593.0,1.0
2256.9370999,-9673.1201171875,6168.0087890625,-273954.25,-263737.46875,-241785.265625,-280936.125,-253061.1875,-421737.21875,0.39697265625,0.723388671875,0.552734375,-1.9226073026657104,-0.3051757514476776,0.6713866591453552,66.66667175292969,85594.0,1.0
2256.9389942,7319.12353515625,5047.3818359375,-273043.8125,-263112.78125,-241625.859375,-283230.3125,-256067.59375,-421391.125,0.400146484375,0.72216796875,0.552001953125,-1.9836424589157104,-0.3967284858226776,0.7019042372703552,66.66667175292969,85595.0,1.0
2256.950253,26440.416015625,8655.3115234375,-272210.8125,-262386.78125,-240152.609375,-286665.15625,-260087.5,-421052.34375,0.398193359375,0.722412109375,0.55224609375,-2.014159917831421,-0.2441406100988388,0.7324218153953552,66.66667175292969,85596.0,1.0
2256.9533317,12441.0712890625,10333.748046875,-273045.625,-262949.5,-240120.15625,-284758.03125,-257525.28125,-421398.25,0.396728515625,0.720947265625,0.552978515625,-1.9836424589157104,-0.2746581733226776,0.7324218153953552,66.66667175292969,85597.0,1.0
2256.9533382,-9097.8759765625,6784.5595703125,-273981.53125,-263739.6875,-241604.578125,-281107.96875,-253213.265625,-421772.625,0.396240234375,0.72265625,0.556396484375,-1.9226073026657104,-0.2746581733226776,0.6713866591453552,66.66667175292969,85598.0,1.0
2256.9615026,2863.884521484375,4638.25537109375,-273275.125,-263290.25,-241821.65625,-282548.0625,-255214.375,-421503.9375,0.398193359375,0.722412109375,0.552734375,-2.044677495956421,-0.2441406100988388,0.6408690810203552,66.66667175292969,85599.0,1.0
2256.9645823,25103.693359375,7908.583984375,-272245.5,-262437.46875,-240385.875,-286404.53125,-259814.359375,-421089.28125,0.396728515625,0.724365234375,0.552978515625,-1.9836424589157104,-0.2441406100988388,0.7324218153953552,66.66667175292969,85600.0,1.0
2256.9645882,16769.62109375,10496.111328125,-272831.03125,-262790.46875,-239969.59375,-285454.59375,-258390.828125,-421333.09375,0.39794921875,0.7236328125,0.5537109375,-1.9531248807907104,-0.1525878757238388,0.6713866591453552,66.66667175292969,85601.0,1.0
2256.9665032,-7648.85693359375,7635.087890625,-273945.75,-263694.71875,-241373.109375,-281461.84375,-253591.90625,-421783.0625,0.3974609375,0.72314453125,0.554443359375,-1.8920897245407104,-0.1831054538488388,0.7019042372703552,66.66667175292969,85602.0,1.0
2256.9752154,-1103.4609375,4763.8720703125,-273488.90625,-263448.75,-241956.484375,-281957.78125,-254463.359375,-421607.9375,0.39892578125,0.72216796875,0.552734375,-1.9226073026657104,-0.2441406100988388,0.7324218153953552,66.66667175292969,85603.0,1.0
2256.9781793,22923.861328125,7174.7314453125,-272342.59375,-262533.84375,-240655.171875,-285961.15625,-259314.765625,-421151.78125,0.39892578125,0.72216796875,0.552734375,-1.9531248807907104,-0.3356933295726776,0.6103515028953552,66.66667175292969,85604.0,1.0
2256.9781852,20790.521484375,10447.5634765625,-272642.21875,-262655.28125,-239887.96875,-286034.84375,-259126.640625,-421278.375,0.399658203125,0.72216796875,0.550048828125,-2.044677495956421,-0.3356933295726776,0.7629393935203552,66.66667175292969,85605.0,1.0
2256.9840085,-4675.27001953125,8362.861328125,-273854.21875,-263608.25,-241118.65625,-281992.125,-254190.84375,-421772.15625,0.397216796875,0.722412109375,0.551025390625,-2.044677495956421,-0.2136230319738388,0.7629393935203552,66.66667175292969,85606.0,1.0
2256.9865147,-4566.28271484375,4706.83056640625,-273682.09375,-263585.375,-242028.90625,-281493.3125,-253855.21875,-421702.34375,0.39892578125,0.721435546875,0.54931640625,-1.9226073026657104,-0.1831054538488388,0.6103515028953552,66.66667175292969,85607.0,1.0
2256.9902474,19450.400390625,6429.703125,-272493.53125,-262669.65625,-240942.34375,-285371.1875,-258627.046875,-421236.0,0.398193359375,0.724365234375,0.55078125,-1.9531248807907104,-0.2136230319738388,0.6103515028953552,66.66667175292969,85608.0,1.0
2256.9989935,23645.197265625,10262.0439453125,-272477.6875,-262543.78125,-239871.328125,-286485.375,-259711.09375,-421232.15625,0.398681640625,0.722412109375,0.552978515625,-1.9531248807907104,-0.3051757514476776,0.6713866591453552,66.66667175292969,85609.0,1.0
2257.0058314,-1109.4512939453125,9161.3544921875,-273709.375,-263484.625,-240842.734375,-282663.46875,-254972.703125,-421738.625,0.397705078125,0.72314453125,0.5537109375,-1.9531248807907104,-0.1831054538488388,0.6713866591453552,66.66667175292969,85610.0,1.0
2257.0058382,-7369.8173828125,5275.99560546875,-273852.78125,-263705.09375,-242026.046875,-281164.03125,-253407.90625,-421794.59375,0.397705078125,0.72265625,0.556640625,-1.9836424589157104,-0.2136230319738388,0.6103515028953552,66.66667175292969,85611.0,1.0
2257.0220752,15563.0732421875,5909.98046875,-272698.625,-262846.59375,-241225.484375,-284662.1875,-257786.078125,-421348.90625,0.398193359375,0.72265625,0.552978515625,-1.9531248807907104,-0.2746581733226776,0.6713866591453552,66.66667175292969,85612.0,1.0
2257.0220823,25709.9609375,9853.72265625,-272371.40625,-262483.96875,-239931.234375,-286729.8125,-260056.390625,-421216.5,0.399169921875,0.724365234375,0.548828125,-2.044677495956421,-0.2746581733226776,0.6408690810203552,66.66667175292969,85613.0,1.0
2257.0239941,3595.59130859375,9702.982421875,-273518.5,-263329.40625,-240581.84375,-283413.34375,-255865.96875,-421686.59375,0.399169921875,0.72412109375,0.549072265625,-1.9836424589157104,-0.2441406100988388,0.5798339247703552,66.66667175292969,85614.0,1.0
2257.0270769,-8868.3681640625,5597.41357421875,-273965.6875,-263773.5,-241957.109375,-281016.875,-253176.4375,-421859.59375,0.39892578125,0.72314453125,0.552734375,-1.9226073026657104,-0.3051757514476776,0.5798339247703552,66.66667175292969,85615.0,1.0
2257.0270815,11066.7958984375,5267.501953125,-272923.65625,-263029.0,-241498.625,-283921.875,-256888.25,-421462.375,0.398681640625,0.722900390625,0.552490234375,-1.9531248807907104,-0.3051757514476776,0.7324218153953552,66.66667175292969,85616.0,1.0
