Time,FZ,C3,CZ,C4,PZ,PO7,OZ,PO8,AccX,AccY,AccZ,Gyro1,Gyro2,Gyro3,Battery,Counter,Validation
22041.4010916,60961.43359375,61049.32421875,61640.5703125,61229.56640625,61178.515625,61250.04296875,61437.4375,61548.48046875,0.52783203125,0.77880859375,0.347412109375,-2.044677495956421,-0.2136230319738388,0.8544921278953552,60.0,808.0,1.0
22041.4047749,61737.3984375,61825.8203125,62417.875,62006.3359375,61955.10546875,62026.98828125,62214.38671875,62325.0703125,0.528076171875,0.779541015625,0.347412109375,-1.9531248807907104,-0.2136230319738388,0.7324218153953552,60.0,809.0,1.0
22041.4047812,63815.484375,63904.53515625,64498.82421875,64086.12109375,64033.37109375,64105.96875,64293.09765625,64404.140625,0.528076171875,0.779541015625,0.3447265625,-1.9531248807907104,-0.3051757514476776,0.7324218153953552,60.0,810.0,1.0
22041.4047837,63575.16015625,63664.296875,64257.9609375,63845.79296875,63793.1328125,63865.46484375,64052.76953125,64163.9921875,0.52978515625,0.7802734375,0.3447265625,-1.9531248807907104,-0.2441406100988388,0.7629393935203552,60.0,811.0,1.0
22041.407366,61466.31640625,61554.73828125,62146.078125,61734.71484375,61683.484375,61755.37109375,61942.67578125,62053.453125,0.528564453125,0.77880859375,0.34716796875,-1.9836424589157104,-0.2441406100988388,0.7019042372703552,60.0,812.0,1.0
22041.4110905,61718.625,61807.40625,62399.1015625,61987.46875,61936.328125,62007.67578125,62195.33984375,62306.296875,0.528564453125,0.77734375,0.348876953125,-2.044677495956421,-0.3662109076976776,0.7019042372703552,60.0,813.0,1.0
22041.4254245,63875.296875,63964.79296875,64558.7265625,64146.2890625,64093.71875,64165.42578125,64353.1796875,64464.3125,0.52734375,0.779541015625,0.345458984375,-2.044677495956421,-0.3662109076976776,0.7019042372703552,60.0,814.0,1.0
22041.4254307,64161.66796875,64251.43359375,64845.36328125,64433.01953125,64379.8203125,64452.15234375,64639.90625,64750.4140625,0.529296875,0.780029296875,0.34423828125,-2.044677495956421,-0.2746581733226776,0.7019042372703552,60.0,815.0,1.0
22041.4279264,62058.81640625,62147.95703125,62739.91796875,62328.01953125,62276.703125,62348.2265625,62535.8046875,62646.66796875,0.5263671875,0.779541015625,0.345458984375,-1.9531248807907104,-0.2746581733226776,0.7019042372703552,60.0,816.0,1.0
22041.4279321,61771.8203125,61860.51171875,62452.20703125,62040.48828125,61989.6171875,62061.05078125,62248.1796875,62359.40234375,0.52734375,0.777587890625,0.343017578125,-2.105712652206421,-0.2441406100988388,0.7629393935203552,60.0,817.0,1.0
22041.43919,63870.203125,63959.7890625,64553.18359375,64141.1953125,64088.35546875,64160.7734375,64347.90234375,64458.9453125,0.529052734375,0.779052734375,0.341796875,-1.9836424589157104,-0.1220703050494194,0.6713866591453552,60.0,818.0,1.0
22041.4391973,64654.03515625,64743.6171875,65338.35546875,64925.65234375,64872.453125,64944.6953125,65132.359375,65243.046875,0.529296875,0.779052734375,0.34423828125,-1.8920897245407104,-0.1831054538488388,0.7019042372703552,60.0,819.0,1.0
22041.4479281,62724.71875,62813.6796875,63406.5390625,62994.73046875,62942.78515625,63014.30859375,63202.0625,63312.83984375,0.52734375,0.77734375,0.343994140625,-1.9836424589157104,-0.2136230319738388,0.7324218153953552,60.0,820.0,1.0
22041.4479352,61908.61328125,61997.125,62589.4453125,62177.7265625,62126.140625,62197.48828125,62385.421875,62496.015625,0.5283203125,0.778076171875,0.3427734375,-2.044677495956421,-0.1831054538488388,0.7019042372703552,60.0,821.0,1.0
22041.4503439,63810.92578125,63900.6015625,64494.53125,64081.73828125,64029.078125,64101.05078125,64289.07421875,64399.3125,0.52978515625,0.779541015625,0.3427734375,-1.9531248807907104,-0.3051757514476776,0.6408690810203552,60.0,822.0,1.0
22041.4503504,65040.62890625,65130.57421875,65725.484375,65312.0703125,65258.87109375,65331.46875,65519.046875,65630.0,0.52880859375,0.778564453125,0.343994140625,-1.9836424589157104,-0.2746581733226776,0.7324218153953552,60.0,823.0,1.0
22041.4610907,63430.23046875,63519.7265625,64112.76171875,63700.5078125,63648.47265625,63720.17578125,63907.93359375,64018.796875,0.527587890625,0.77734375,0.345947265625,-1.9531248807907104,-0.1831054538488388,0.6408690810203552,60.0,824.0,1.0
22041.4654376,62131.86328125,62220.5546875,62812.4296875,62400.88671875,62349.390625,62420.9140625,62608.84765625,62719.35546875,0.5283203125,0.777587890625,0.345947265625,-1.9531248807907104,-0.2746581733226776,0.6408690810203552,60.0,825.0,1.0
22041.4654443,63726.16796875,63815.39453125,64408.96875,63996.625,63944.23046875,64016.11328125,64203.95703125,64315.00390625,0.528076171875,0.780029296875,0.3447265625,-1.9531248807907104,-0.2136230319738388,0.7629393935203552,60.0,826.0,1.0
22041.4741893,65334.6875,65425.078125,66019.8125,65606.84375,65553.109375,65625.890625,65813.375,65924.59375,0.52783203125,0.77978515625,0.34326171875,-1.8920897245407104,-0.3051757514476776,0.6408690810203552,60.0,827.0,1.0
22041.4741956,64149.33203125,64238.91796875,64832.84765625,64420.50390625,64367.57421875,64439.9921875,64627.30078125,64738.703125,0.5283203125,0.778564453125,0.343994140625,-1.9836424589157104,-0.3356933295726776,0.6713866591453552,60.0,828.0,1.0
22041.4829279,62452.296875,62541.4375,63133.9375,62722.0390625,62670.00390625,62741.88671875,62929.4609375,63040.328125,0.527587890625,0.77978515625,0.346435546875,-2.044677495956421,-0.3051757514476776,0.6408690810203552,60.0,829.0,1.0
22041.4829351,63631.484375,63721.25,64314.64453125,63902.56640625,63849.63671875,63921.609375,64109.3671875,64220.5,0.52783203125,0.7783203125,0.344482421875,-2.044677495956421,-0.3356933295726776,0.6408690810203552,60.0,830.0,1.0
22041.4854259,65536.2109375,65626.6015625,66222.0546875,65808.8125,65754.8984375,65827.3203125,66015.34375,66126.296875,0.529052734375,0.777587890625,0.344482421875,-2.014159917831421,-0.2441406100988388,0.7934569716453552,60.0,831.0,1.0
22041.4854317,64849.4765625,64939.2421875,65533.88671875,65121.453125,65067.71875,65140.05078125,65327.8046875,65438.66796875,0.5283203125,0.781005859375,0.3447265625,-2.075195074081421,-0.2441406100988388,0.7324218153953552,60.0,832.0,1.0
22041.4960898,62868.48828125,62957.4453125,63550.21484375,63138.765625,63086.1015625,63157.984375,63345.65234375,63456.42578125,0.52783203125,0.77880859375,0.3447265625,-1.9836424589157104,-0.2136230319738388,0.5493163466453552,60.0,833.0,1.0
22041.4991667,63566.3984375,63655.8046875,64249.109375,63836.8515625,63784.19140625,63856.1640625,64043.65234375,64154.515625,0.529052734375,0.779296875,0.345947265625,-1.9836424589157104,-0.3051757514476776,0.6408690810203552,60.0,834.0,1.0
22041.4991721,65657.984375,65748.1953125,66343.828125,65929.8671875,65876.2265625,65948.734375,66136.3984375,66247.53125,0.529052734375,0.77880859375,0.345458984375,-1.9531248807907104,-0.3051757514476776,0.7019042372703552,60.0,835.0,1.0
22041.5048498,65496.6953125,65586.90625,66182.359375,65768.4921875,65714.7578125,65787.359375,65975.109375,66086.0625,0.530517578125,0.777099609375,0.34619140625,-2.075195074081421,-0.2441406100988388,0.8239745497703552,60.0,836.0,1.0
22041.5085929,63381.32421875,63470.46484375,64064.03515625,63651.06640625,63598.49609375,63671.00390625,63858.3125,63969.4453125,0.52978515625,0.77685546875,0.3466796875,-2.044677495956421,-0.2441406100988388,0.7629393935203552,60.0,837.0,1.0
22041.5204259,63552.71875,63641.9453125,64235.609375,63822.81640625,63769.88671875,63842.21875,64029.79296875,64141.28515625,0.528076171875,0.77734375,0.345703125,-2.014159917831421,-0.1525878757238388,0.7324218153953552,60.0,838.0,1.0
22041.5204334,65700.09375,65789.9453125,66386.1171875,65972.1640625,65918.15625,65991.46875,66178.8671875,66290.1796875,0.52880859375,0.778076171875,0.346435546875,-1.9531248807907104,-0.0915527269244194,0.7019042372703552,60.0,839.0,1.0
22041.5341617,66060.8515625,66151.0625,66747.046875,66333.09375,66279.0078125,66352.5,66539.8046875,66651.203125,0.527099609375,0.779541015625,0.344482421875,-1.9836424589157104,-0.1831054538488388,0.7629393935203552,60.0,840.0,1.0
22041.5341677,63976.1484375,64065.37890625,64659.21875,64246.60546875,64194.03515625,64266.453125,64453.58203125,64564.984375,0.52685546875,0.78076171875,0.345703125,-2.044677495956421,-0.2136230319738388,0.7019042372703552,60.0,841.0,1.0
22041.5360924,63606.54296875,63695.76953125,64289.07421875,63876.73046875,63824.24609375,63896.578125,64083.97265625,64194.9296875,0.527587890625,0.77978515625,0.343994140625,-2.014159917831421,-0.2746581733226776,0.7934569716453552,60.0,842.0,1.0
22041.5391806,65680.6953125,65770.9921875,66366.4453125,65952.8515625,65899.203125,65971.984375,66159.2890625,66270.5078125,0.527587890625,0.779052734375,0.34375,-2.075195074081421,-0.2746581733226776,0.7019042372703552,60.0,843.0,1.0
22041.5391884,66532.296875,66622.59375,67218.9375,66804.71875,66750.71875,66823.671875,67011.15625,67122.2890625,0.5263671875,0.779052734375,0.3447265625,-1.9531248807907104,-0.2746581733226776,0.6408690810203552,60.0,844.0,1.0
22041.5411058,64641.78515625,64731.19140625,65325.74609375,64912.5078125,64859.4921875,64932.0,65119.6640625,65230.53125,0.52685546875,0.777587890625,0.34619140625,-2.044677495956421,-0.1831054538488388,0.7629393935203552,60.0,845.0,1.0
22041.5448429,63748.7890625,63838.015625,64431.3203125,64018.88671875,63966.31640625,64038.734375,64226.04296875,64337.35546875,0.52978515625,0.778076171875,0.3447265625,-2.075195074081421,-0.3051757514476776,0.7324218153953552,60.0,846.0,1.0
22041.5541456,65611.2265625,65701.5234375,66296.7109375,65883.203125,65829.5546875,65902.6015625,66089.90625,66201.3125,0.5263671875,0.777587890625,0.345947265625,-1.9836424589157104,-0.2441406100988388,0.7629393935203552,60.0,847.0,1.0
22041.5541532,66902.7109375,66993.453125,67589.8046875,67175.3125,67121.484375,67194.625,67381.9296875,67493.1484375,0.527587890625,0.77734375,0.343017578125,-1.9836424589157104,-0.1831054538488388,0.7934569716453552,60.0,848.0,1.0
22041.55756,65345.86328125,65435.98828125,66030.8984375,65617.390625,65564.015625,65636.6171875,65824.1953125,65935.234375,0.52880859375,0.775634765625,0.34423828125,-1.8920897245407104,-0.2441406100988388,0.7629393935203552,60.0,849.0,1.0
22041.5623601,63983.9296875,64073.42578125,64666.8203125,64254.29296875,64201.1875,64273.875,64461.44921875,64572.671875,0.529052734375,0.777099609375,0.341796875,-1.8615721464157104,-0.3051757514476776,0.7934569716453552,60.0,850.0,1.0
22041.5648546,65519.58203125,65609.703125,66204.9765625,65791.46875,65737.6484375,65810.3359375,65998.265625,66109.578125,0.527587890625,0.778076171875,0.34716796875,-1.9226073026657104,-0.2441406100988388,0.7019042372703552,60.0,851.0,1.0
22041.5735971,67176.296875,67267.0390625,67863.65625,67449.8828125,67394.625,67468.296875,67656.140625,67767.2734375,0.52734375,0.77880859375,0.3466796875,-2.014159917831421,-0.3662109076976776,0.7629393935203552,60.0,852.0,1.0
22041.5779386,66058.171875,66148.46875,66744.1015625,66330.59375,66276.5,66349.9921875,66537.484375,66648.2578125,0.528076171875,0.77880859375,0.342529296875,-1.9836424589157104,-0.3051757514476776,0.7324218153953552,60.0,853.0,1.0
22041.5779461,64310.98046875,64400.5625,64994.49609375,64581.97265625,64528.7734375,64601.10546875,64789.0390625,64899.72265625,0.526123046875,0.77734375,0.342041015625,-2.075195074081421,-0.2746581733226776,0.7629393935203552,60.0,854.0,1.0
22041.5835858,65423.203125,65513.234375,66108.0625,65695.1796875,65641.3515625,65714.21875,65902.15625,66012.84375,0.52587890625,0.778564453125,0.344482421875,-2.075195074081421,-0.1831054538488388,0.7934569716453552,60.0,855.0,1.0
22041.5904253,67362.2578125,67453.0078125,68049.9765625,67635.578125,67580.859375,67654.796875,67842.375,67953.1484375,0.52734375,0.77978515625,0.343017578125,-2.014159917831421,-0.2441406100988388,0.7019042372703552,60.0,856.0,1.0
22041.5904327,66748.390625,66839.046875,67435.484375,67021.3515625,66966.8125,67040.21875,67227.96875,67339.1015625,0.52978515625,0.778076171875,0.342529296875,-1.9226073026657104,-0.2441406100988388,0.7629393935203552,60.0,857.0,1.0
22041.5991753,64736.82421875,64826.58984375,65421.14453125,65008.44140625,64954.796875,65027.3984375,65215.0625,65326.28515625,0.5302734375,0.7783203125,0.34423828125,-1.9226073026657104,-0.1831054538488388,0.7629393935203552,60.0,858.0,1.0
22041.5991829,65361.77734375,65452.078125,66046.7265625,65633.9375,65579.9296875,65652.6171875,65840.4609375,65951.5078125,0.531005859375,0.777587890625,0.344482421875,-1.9226073026657104,-0.0610351525247097,0.7019042372703552,60.0,859.0,1.0
22041.601092,67467.671875,67558.6875,68155.296875,67741.078125,67686.359375,67759.8515625,67947.609375,68058.296875,0.530517578125,0.77685546875,0.345947265625,-1.9531248807907104,-0.1525878757238388,0.6408690810203552,60.0,860.0,1.0
22041.6048502,67380.40625,67471.25,68067.859375,67653.546875,67599.1015625,67672.4140625,67859.9921875,67971.125,0.525634765625,0.77685546875,0.344482421875,-1.8920897245407104,-0.1525878757238388,0.7019042372703552,60.0,861.0,1.0
22041.6141733,65256.3671875,65346.4921875,65940.8671875,65527.80859375,65474.51953125,65546.765625,65734.78125,65845.46875,0.5263671875,0.77734375,0.34375,-1.9226073026657104,-0.1831054538488388,0.7629393935203552,60.0,862.0,1.0
22041.6141805,65348.27734375,65438.578125,66033.40625,65620.34375,65566.703125,65639.1171875,65826.9609375,65938.0078125,0.5263671875,0.780029296875,0.3447265625,-1.9226073026657104,-0.3356933295726776,0.8239745497703552,60.0,863.0,1.0
22041.6162088,67494.1328125,67585.1484375,68182.2109375,67767.71875,67713.09375,67786.046875,67973.8046875,68085.203125,0.527099609375,0.778076171875,0.347900390625,-1.9836424589157104,-0.2746581733226776,0.7324218153953552,60.0,864.0,1.0
22041.625417,67924.453125,68015.5546875,68612.8828125,68197.765625,68143.40625,68216.6328125,68404.03125,68515.4296875,0.528076171875,0.779296875,0.35009765625,-2.014159917831421,-0.2746581733226776,0.6408690810203552,60.0,865.0,1.0
22041.6254232,65854.4140625,65945.0703125,66540.1640625,66126.4765625,66073.0078125,66145.875,66333.0078125,66444.2265625,0.527587890625,0.780029296875,0.344970703125,-1.8920897245407104,-0.2746581733226776,0.7324218153953552,60.0,866.0,1.0
22041.6273593,65408.44921875,65498.66015625,66093.578125,65679.9765625,65626.6015625,65699.203125,65886.953125,65997.90625,0.527587890625,0.779296875,0.345458984375,-1.8920897245407104,-0.2746581733226776,0.7629393935203552,60.0,867.0,1.0
22041.6435908,67459.890625,67550.5546875,68147.8828125,67732.8515625,67678.578125,67752.078125,67939.46875,68050.6953125,0.529052734375,0.77880859375,0.34521484375,-2.014159917831421,-0.2746581733226776,0.7324218153953552,60.0,868.0,1.0
22041.6466686,68373.3671875,68464.5625,69062.6953125,68647.3984375,68592.9453125,68666.171875,68853.9296875,68965.0625,0.529052734375,0.778076171875,0.345458984375,-1.9836424589157104,-0.1831054538488388,0.7629393935203552,60.0,869.0,1.0
22041.6466753,66517.3671875,66607.578125,67203.7421875,66789.515625,66735.9609375,66809.1875,66996.5,67107.453125,0.529541015625,0.7783203125,0.345458984375,-1.9836424589157104,-0.2441406100988388,0.8239745497703552,60.0,870.0,1.0
22041.6485919,65555.34375,65645.5546875,66240.6484375,65827.0546875,65773.859375,65846.3671875,66034.296875,66145.1640625,0.529052734375,0.779296875,0.34765625,-1.9836424589157104,-0.2441406100988388,0.7934569716453552,60.0,871.0,1.0
22041.6511021,67381.9296875,67472.6796875,68069.828125,67655.15625,67600.890625,67673.84375,67861.8671875,67972.90625,0.5263671875,0.780517578125,0.348876953125,-1.8920897245407104,-0.2746581733226776,0.7934569716453552,60.0,872.0,1.0
22041.6535766,68723.5703125,68815.3046875,69413.34375,68997.875,68942.9765625,69016.828125,69204.671875,69315.625,0.526611328125,0.780029296875,0.349365234375,-1.9531248807907104,-0.2441406100988388,0.7324218153953552,60.0,873.0,1.0
22041.6629237,67217.78125,67308.8828125,67905.5859375,67491.09375,67436.9140625,67510.046875,67697.8046875,67808.7578125,0.526611328125,0.77978515625,0.3486328125,-1.8920897245407104,-0.2746581733226776,0.6103515028953552,60.0,874.0,1.0
22041.6629311,65793.078125,65883.46875,66479.1875,66065.234375,66011.6796875,66084.3671875,66272.1171875,66383.078125,0.528076171875,0.779541015625,0.345947265625,-1.8920897245407104,-0.2746581733226776,0.6103515028953552,60.0,875.0,1.0
22041.6648338,67278.578125,67369.4140625,67966.6484375,67551.8046875,67497.625,67570.84375,67758.515625,67869.5546875,0.52783203125,0.779541015625,0.346435546875,-1.9836424589157104,-0.3051757514476776,0.7324218153953552,60.0,876.0,1.0
22041.667353,68981.2421875,69073.0625,69671.109375,69255.8125,69200.46875,69274.5,69461.71875,69573.203125,0.52978515625,0.7763671875,0.34619140625,-1.8920897245407104,-0.2136230319738388,0.8239745497703552,60.0,877.0,1.0
22041.6810965,67922.484375,68014.0390625,68611.0078125,68196.4296875,68141.7109375,68215.46875,68402.8671875,68513.8203125,0.528076171875,0.779052734375,0.34619140625,-1.9531248807907104,-0.3051757514476776,0.7629393935203552,60.0,878.0,1.0
22041.6841786,66128.8046875,66219.4609375,66815.0859375,66401.3125,66347.671875,66420.359375,66608.0234375,66718.9765625,0.52734375,0.77734375,0.344970703125,-1.8920897245407104,-0.2136230319738388,0.7934569716453552,60.0,879.0,1.0
22041.684186,67180.2265625,67271.2421875,67867.5859375,67453.546875,67399.3671875,67472.3203125,67659.984375,67771.03125,0.52685546875,0.77734375,0.3447265625,-1.9226073026657104,-0.1525878757238388,0.7934569716453552,60.0,880.0,1.0
22041.6860946,69147.71875,69239.359375,69837.4921875,69422.1953125,69367.125,69440.96875,69628.7265625,69739.7734375,0.5283203125,0.77880859375,0.343505859375,-1.9531248807907104,-0.2136230319738388,0.7934569716453552,60.0,881.0,1.0
22041.6886006,68599.3828125,68690.578125,69288.7109375,68873.59375,68818.609375,68892.375,69080.125,69190.71875,0.528076171875,0.77783203125,0.343994140625,-2.014159917831421,-0.2136230319738388,0.7934569716453552,60.0,882.0,1.0
22041.6923582,66559.8359375,66650.4921875,67246.390625,66833.1484375,66778.25,66851.75,67039.140625,67150.1875,0.529541015625,0.780517578125,0.3447265625,-1.9836424589157104,-0.2441406100988388,0.7019042372703552,60.0,883.0,1.0
22041.7016679,67112.8125,67203.828125,67800.0859375,67386.4921875,67331.6796875,67405.171875,67592.6640625,67703.796875,0.528076171875,0.78076171875,0.343505859375,-1.9836424589157104,-0.2136230319738388,0.7324218153953552,60.0,884.0,1.0
22041.7016754,69232.03125,69323.578125,69922.0703125,69506.8671875,69451.1640625,69525.28125,69712.859375,69824.171875,0.52734375,0.77978515625,0.34619140625,-1.9836424589157104,-0.3356933295726776,0.6103515028953552,60.0,885.0,1.0
22041.7041664,69212.71875,69304.1796875,69902.7578125,69487.015625,69431.9453125,69506.2421875,69693.546875,69804.765625,0.527587890625,0.779052734375,0.34716796875,-1.9226073026657104,-0.2441406100988388,0.6713866591453552,60.0,886.0,1.0
22041.7041735,67083.9375,67174.6875,67771.1171875,67357.078125,67302.8046875,67376.3828125,67563.6953125,67674.46875,0.528076171875,0.77978515625,0.345703125,-1.9226073026657104,-0.1525878757238388,0.7629393935203552,60.0,887.0,1.0
22041.7198341,67102.890625,67193.7265625,67790.5234375,67376.1171875,67322.203125,67395.34375,67582.828125,67693.8671875,0.52978515625,0.77880859375,0.34619140625,-1.8920897245407104,-0.2136230319738388,0.8239745497703552,60.0,888.0,1.0
22041.7235225,69244.6328125,69336.1015625,69934.859375,69519.5625,69464.578125,69538.4296875,69725.8203125,69836.953125,0.527587890625,0.779052734375,0.34521484375,-1.9836424589157104,-0.1220703050494194,0.7019042372703552,60.0,889.0,1.0
22041.7235298,69739.59375,69831.59375,70430.4375,70014.6953125,69959.53125,70033.6484375,70220.9609375,70331.734375,0.529541015625,0.7783203125,0.34423828125,-2.014159917831421,-0.1525878757238388,0.7324218153953552,60.0,890.0,1.0
22041.7235326,67685.109375,67776.484375,68373.6328125,67959.140625,67904.421875,67978.0078125,68165.40625,68276.265625,0.527587890625,0.779296875,0.34619140625,-1.9836424589157104,-0.2136230319738388,0.7629393935203552,60.0,891.0,1.0
22041.7260899,67164.578125,67256.046875,67852.65625,67438.5234375,67384.078125,67457.2109375,67644.1640625,67755.6484375,0.5283203125,0.77978515625,0.345947265625,-1.9836424589157104,-0.1525878757238388,0.8239745497703552,60.0,892.0,1.0
22041.7285901,69194.1171875,69285.8515625,69884.25,69468.6875,69413.8828125,69487.640625,69674.6796875,69786.3515625,0.52734375,0.779296875,0.34521484375,-2.044677495956421,-0.2136230319738388,0.7934569716453552,60.0,893.0,1.0
22041.7398347,70169.015625,70261.015625,70860.21875,70444.4765625,70389.2265625,70463.0703125,70650.46875,70762.140625,0.529541015625,0.778564453125,0.343505859375,-1.9836424589157104,-0.2136230319738388,0.7019042372703552,60.0,894.0,1.0
22041.7429227,68350.2109375,68441.7578125,69039.8046875,68624.6875,68569.703125,68643.4609375,68830.7734375,68942.078125,0.52734375,0.777587890625,0.346435546875,-2.044677495956421,-0.2136230319738388,0.7629393935203552,60.0,895.0,1.0
22041.7429296,67319.2578125,67410.453125,68007.2421875,67592.84375,67538.2109375,67611.703125,67799.015625,67910.328125,0.527587890625,0.778564453125,0.344482421875,-2.044677495956421,-0.1525878757238388,0.7629393935203552,60.0,896.0,1.0
22041.7448387,69104.1796875,69195.8203125,69794.3984375,69378.8359375,69323.3984375,69397.5234375,69585.09375,69696.40625,0.527587890625,0.77978515625,0.342529296875,-2.014159917831421,-0.2136230319738388,0.6713866591453552,60.0,897.0,1.0
22041.7535902,70498.8359375,70590.65625,71190.6640625,70773.9375,70718.328125,70793.078125,70980.46875,71091.78125,0.526123046875,0.77978515625,0.34375,-2.044677495956421,-0.2136230319738388,0.6408690810203552,60.0,898.0,1.0
22041.7560971,69044.6328125,69135.828125,69734.5859375,69318.9296875,69264.125,69338.15625,69525.4609375,69636.59375,0.5263671875,0.779052734375,0.343505859375,-1.9836424589157104,-0.3356933295726776,0.7019042372703552,60.0,899.0,1.0
22041.7598014,67562.4453125,67653.0078125,68250.515625,67835.8515625,67781.3984375,67855.0703125,68042.203125,68153.515625,0.52880859375,0.779052734375,0.343994140625,-2.014159917831421,-0.2746581733226776,0.6408690810203552,60.0,900.0,1.0
22041.7691733,68992.328125,69083.609375,69682.546875,69266.625,69211.640625,69285.765625,69473.0703125,69584.2890625,0.5283203125,0.780517578125,0.346923828125,-1.9836424589157104,-0.3356933295726776,0.7324218153953552,60.0,901.0,1.0
22041.7691808,70735.5,70827.671875,71427.953125,71011.046875,70955.4375,71029.9140625,71217.3984375,71328.890625,0.52783203125,0.780517578125,0.34521484375,-2.044677495956421,-0.2441406100988388,0.7629393935203552,60.0,902.0,1.0
22041.7710937,69744.953125,69836.7734375,70435.984375,70019.6171875,69964.5390625,70038.75,70225.96875,70337.6328125,0.530029296875,0.778564453125,0.346435546875,-1.9531248807907104,-0.2136230319738388,0.7324218153953552,60.0,903.0,1.0
22041.7823573,67906.03125,67997.40625,68594.9140625,68179.6171875,68125.078125,68198.75,68386.2421875,68497.640625,0.52880859375,0.77880859375,0.34765625,-1.9531248807907104,-0.2136230319738388,0.7934569716453552,60.0,904.0,1.0
22041.7854194,68887.546875,68979.09375,69577.2265625,69161.484375,69106.59375,69180.6171875,69367.8359375,69479.4140625,0.52880859375,0.779052734375,0.345703125,-1.9836424589157104,-0.2136230319738388,0.7934569716453552,60.0,905.0,1.0
22041.7854258,70881.140625,70973.140625,71573.328125,71156.2421875,71100.7265625,71175.375,71363.046875,71474.1796875,0.528076171875,0.778076171875,0.347900390625,-2.075195074081421,-0.2136230319738388,0.7629393935203552,60.0,906.0,1.0
22041.7873575,70405.140625,70497.046875,71096.7890625,70680.3359375,70624.71875,70699.1953125,70886.953125,70997.7265625,0.528564453125,0.779052734375,0.344970703125,-2.014159917831421,-0.2441406100988388,0.6713866591453552,60.0,907.0,1.0
22041.7966677,68340.5546875,68432.1015625,69029.703125,68614.4921875,68559.7734375,68633.359375,68821.0234375,68932.25,0.529052734375,0.77880859375,0.345947265625,-1.9836424589157104,-0.1525878757238388,0.7019042372703552,60.0,908.0,1.0
22041.7966741,68815.5703125,68906.9453125,69505.1640625,69089.6015625,69034.6171875,69108.828125,69296.4921875,69407.625,0.527099609375,0.777587890625,0.3447265625,-1.9531248807907104,-0.0915527269244194,0.7324218153953552,60.0,909.0,1.0
22041.7985958,70946.046875,71038.046875,71638.328125,71221.421875,71165.9921875,71240.6484375,71428.1328125,71539.3515625,0.52880859375,0.778564453125,0.34521484375,-1.9836424589157104,-0.2441406100988388,0.7324218153953552,60.0,910.0,1.0
22041.8023606,70999.78125,71092.140625,71692.6875,71275.15625,71219.7265625,71294.3828125,71481.8671875,71593.4453125,0.53076171875,0.779541015625,0.345703125,-1.9226073026657104,-0.2441406100988388,0.6713866591453552,60.0,911.0,1.0
22041.8166667,68868.6796875,68960.3203125,69559.171875,69143.25,69088.265625,69162.3828125,69349.6015625,69460.8203125,0.5283203125,0.779296875,0.34326171875,-1.9531248807907104,-0.2441406100988388,0.7629393935203552,60.0,912.0,1.0
22041.8166743,68808.421875,68899.8828125,69498.1953125,69082.8046875,69027.46875,69101.671875,69288.890625,69400.46875,0.52880859375,0.779052734375,0.345947265625,-1.9226073026657104,-0.3356933295726776,0.8850097060203552,60.0,913.0,1.0
22041.8191792,70939.96875,71031.96875,71632.15625,71215.2578125,71159.734375,71234.390625,71421.6953125,71533.1875,0.529052734375,0.777587890625,0.34375,-2.014159917831421,-0.2441406100988388,0.6713866591453552,60.0,914.0,1.0
22041.8191867,71504.3046875,71596.3046875,72197.03125,71779.7734375,71723.9765625,71798.9921875,71986.390625,72097.8828125,0.52880859375,0.777587890625,0.343994140625,-2.044677495956421,-0.2441406100988388,0.6408690810203552,60.0,915.0,1.0
22041.8210956,69475.0390625,69566.3203125,70165.171875,69749.0703125,69693.9921875,69768.109375,69955.8671875,70067.0,0.529052734375,0.779296875,0.34228515625,-2.044677495956421,-0.2441406100988388,0.6713866591453552,60.0,916.0,1.0
22041.8298521,68877.2578125,68968.6328125,69566.765625,69151.203125,69096.3046875,69170.0703125,69358.0,69469.046875,0.52978515625,0.778564453125,0.343505859375,-1.8920897245407104,-0.3051757514476776,0.6408690810203552,60.0,917.0,1.0
22041.8341764,70876.671875,70968.9375,71568.6796875,71151.5078125,71096.078125,71170.546875,71358.3984375,71469.53125,0.529052734375,0.7783203125,0.346923828125,-2.014159917831421,-0.2136230319738388,0.7324218153953552,60.0,918.0,1.0
22041.8341805,71914.4140625,72006.953125,72607.765625,72189.96875,72134.4453125,72209.4609375,72396.765625,72508.4375,0.52734375,0.77783203125,0.34423828125,-2.014159917831421,-0.0915527269244194,0.7019042372703552,60.0,919.0,1.0
22041.8423534,70139.6875,70231.8671875,70831.515625,70414.4375,70359.8046875,70433.9296875,70621.3203125,70732.90625,0.527587890625,0.779541015625,0.34228515625,-2.014159917831421,-0.1831054538488388,0.7934569716453552,60.0,920.0,1.0
22041.8491628,69036.3203125,69127.9609375,69726.359375,69310.3515625,69256.078125,69330.015625,69517.1484375,69628.3671875,0.528564453125,0.779296875,0.342041015625,-2.044677495956421,-0.1831054538488388,0.7324218153953552,60.0,921.0,1.0
22041.8491697,70774.4765625,70866.296875,71466.3984375,71049.1328125,70994.1484375,71068.8984375,71255.84375,71367.3359375,0.52734375,0.779296875,0.342041015625,-1.9531248807907104,-0.1525878757238388,0.7324218153953552,60.0,922.0,1.0
22041.8579149,72223.9453125,72316.4765625,72917.7421875,72499.765625,72443.8828125,72519.1640625,72705.9375,72817.9609375,0.528076171875,0.777587890625,0.34375,-1.9531248807907104,-0.2441406100988388,0.7324218153953552,60.0,923.0,1.0
22041.8579229,70831.6953125,70923.6953125,71523.890625,71106.625,71051.3671875,71126.0234375,71312.796875,71424.9140625,0.52880859375,0.77783203125,0.34130859375,-1.9836424589157104,-0.3662109076976776,0.6713866591453552,60.0,924.0,1.0
22041.8604205,69289.4296875,69381.0703125,69979.9140625,69564.0,69508.8359375,69582.59375,69769.9921875,69881.75,0.528564453125,0.77685546875,0.343994140625,-2.014159917831421,-0.3356933295726776,0.6713866591453552,60.0,925.0,1.0
22041.8604269,70656.1953125,70748.3671875,71348.2890625,70931.4765625,70875.8671875,70950.34375,71137.9140625,71249.2265625,0.529541015625,0.7783203125,0.3447265625,-2.014159917831421,-0.2746581733226776,0.7324218153953552,60.0,926.0,1.0
22041.8760816,72441.46875,72534.453125,73135.4453125,72717.46875,72661.7734375,72736.6953125,72924.1796875,73035.9375,0.52880859375,0.778564453125,0.34423828125,-2.014159917831421,-0.2441406100988388,0.7934569716453552,60.0,927.0,1.0
22041.8810191,71523.171875,71615.53125,72215.5390625,71798.8125,71742.9375,71817.5,72005.1640625,72116.7421875,0.5263671875,0.7783203125,0.34423828125,-1.9836424589157104,-0.1220703050494194,0.7934569716453552,60.0,928.0,1.0
22041.8810265,69639.90625,69731.7265625,70330.3046875,69914.7421875,69859.484375,69933.6953125,70120.9140625,70232.2265625,0.5263671875,0.777587890625,0.34619140625,-2.014159917831421,-0.2441406100988388,0.8544921278953552,60.0,929.0,1.0
22041.8810291,70548.8125,70640.7265625,71239.9296875,70823.46875,70768.3046875,70842.609375,71030.0,71141.2265625,0.52880859375,0.776611328125,0.34228515625,-2.014159917831421,-0.2746581733226776,0.8850097060203552,60.0,930.0,1.0
22041.8841824,72570.3984375,72662.75,73263.4765625,72846.0390625,72790.15625,72865.4375,73052.390625,73164.5078125,0.52978515625,0.77734375,0.341064453125,-2.044677495956421,-0.1831054538488388,0.7324218153953552,60.0,931.0,1.0
22041.8841893,72171.5546875,72264.1796875,72864.7265625,72447.640625,72391.9375,72466.328125,72653.7265625,72765.6640625,0.52783203125,0.778076171875,0.342529296875,-1.9836424589157104,-0.2136230319738388,0.7934569716453552,60.0,932.0,1.0
22041.8973545,70084.6171875,70176.4375,70775.8203125,70359.6328125,70304.2890625,70378.1328125,70565.53125,70677.3828125,0.527587890625,0.77880859375,0.344482421875,-1.9531248807907104,-0.2136230319738388,0.7629393935203552,60.0,933.0,1.0
22041.9047622,70482.03125,70573.671875,71173.4140625,70757.046875,70701.703125,70775.8203125,70963.0390625,71075.0625,0.529052734375,0.77880859375,0.343017578125,-2.014159917831421,-0.1525878757238388,0.8239745497703552,60.0,934.0,1.0
22041.904768,72618.40625,72710.9453125,73312.1171875,72894.3203125,72838.6171875,72913.2734375,73100.1328125,73212.6953125,0.5302734375,0.779052734375,0.345458984375,-2.075195074081421,-0.1525878757238388,0.7934569716453552,60.0,935.0,1.0
22041.9047702,72745.8984375,72838.6171875,73440.1484375,73022.5234375,72966.109375,73040.9453125,73228.1640625,73340.546875,0.52978515625,0.779052734375,0.349609375,-1.9531248807907104,-0.2746581733226776,0.6713866591453552,60.0,936.0,1.0
22041.9079263,70617.5703125,70709.4765625,71309.1328125,70892.765625,70837.0625,70911.1796875,71098.7578125,71210.78125,0.53076171875,0.77880859375,0.349365234375,-1.8920897245407104,-0.3356933295726776,0.7324218153953552,60.0,937.0,1.0
22041.9079294,70476.3046875,70568.0390625,71167.8671875,70751.140625,70695.796875,70770.1875,70957.2265625,71069.25,0.529296875,0.780029296875,0.34521484375,-1.9226073026657104,-0.3356933295726776,0.7324218153953552,60.0,938.0,1.0
22041.921085,72594.5390625,72687.1640625,73288.6015625,72870.625,72814.921875,72889.7578125,73076.7109375,73188.9140625,0.52880859375,0.779052734375,0.3447265625,-1.9836424589157104,-0.3051757514476776,0.5798339247703552,60.0,939.0,1.0
22041.9260126,73230.6640625,73323.9140625,73925.4453125,73507.2890625,73451.4140625,73526.3359375,73713.640625,73825.046875,0.529541015625,0.779052734375,0.3466796875,-2.075195074081421,-0.1831054538488388,0.7324218153953552,60.0,940.0,1.0
22041.9260184,71227.7734375,71320.484375,71920.2265625,71503.59375,71448.0703125,71522.28125,71709.8515625,71821.1640625,0.529052734375,0.77880859375,0.348388671875,-1.9836424589157104,-0.1220703050494194,0.7019042372703552,60.0,941.0,1.0
22041.9260208,70554.0,70645.734375,71245.3828125,70829.015625,70773.4921875,70847.96875,71035.6328125,71146.765625,0.528564453125,0.778564453125,0.346923828125,-2.014159917831421,-0.1525878757238388,0.6408690810203552,60.0,942.0,1.0
22041.9323552,72523.0078125,72614.828125,73216.453125,72798.7421875,72742.859375,72817.78125,73005.453125,73116.671875,0.526123046875,0.779052734375,0.34765625,-2.044677495956421,-0.1220703050494194,0.5798339247703552,60.0,943.0,1.0
22041.9360894,73622.265625,73715.0703125,74317.046875,73898.984375,73842.75,73917.7578125,74105.515625,74216.828125,0.526611328125,0.780029296875,0.347900390625,-2.014159917831421,-0.2441406100988388,0.6103515028953552,60.0,944.0,1.0
22041.9398326,71894.2109375,71986.2109375,72587.1171875,72170.03125,72114.0625,72188.5390625,72376.6484375,72487.875,0.527099609375,0.77783203125,0.34521484375,-1.9531248807907104,-0.2441406100988388,0.6103515028953552,60.0,945.0,1.0
22041.967915,70716.8984375,70808.8984375,71408.4609375,70992.1875,70936.390625,71010.9609375,71198.4453125,71310.203125,0.5283203125,0.77783203125,0.34716796875,-1.9836424589157104,-0.1831054538488388,0.6713866591453552,60.0,946.0,1.0
22041.9679207,72404.28125,72497.078125,73097.71875,72680.3671875,72624.484375,72699.5859375,72886.625,72998.2109375,0.530029296875,0.77783203125,0.347900390625,-1.9226073026657104,-0.2136230319738388,0.6713866591453552,60.0,947.0,1.0
22041.9703951,73907.296875,74000.546875,74602.3515625,74183.921875,74127.8671875,74203.5,74390.8125,74502.484375,0.528564453125,0.77734375,0.3447265625,-2.105712652206421,-0.3662109076976776,0.9155272841453552,60.0,948.0,1.0
22041.9704008,72578.890625,72671.78125,73272.421875,72854.890625,72799.0078125,72873.84375,73061.328125,73173.0859375,0.528076171875,0.779541015625,0.34423828125,-2.044677495956421,-0.3356933295726776,0.7629393935203552,60.0,949.0,1.0
22041.9721884,70979.7578125,71072.1171875,71671.6796875,71254.953125,71199.6953125,71273.8125,71461.125,71573.1484375,0.529541015625,0.780517578125,0.343017578125,-2.075195074081421,-0.1831054538488388,0.7629393935203552,60.0,950.0,1.0
22041.978613,72283.0390625,72376.0234375,72976.390625,72559.1328125,72503.4296875,72578.265625,72765.3046875,72877.5078125,0.530029296875,0.77880859375,0.343505859375,-2.014159917831421,-0.2136230319738388,0.7934569716453552,60.0,951.0,1.0
22041.9810906,74108.28125,74201.8046875,74803.6015625,74385.359375,74328.9453125,74404.578125,74591.7109375,74703.9140625,0.52734375,0.7783203125,0.344970703125,-2.075195074081421,-0.2746581733226776,0.7019042372703552,60.0,952.0,1.0
22041.9835849,73259.8984375,73353.15625,73954.328125,73536.2578125,73480.203125,73555.3046875,73743.0546875,73854.9921875,0.52880859375,0.778076171875,0.343505859375,-1.9531248807907104,-0.2746581733226776,0.6713866591453552,60.0,953.0,1.0
22041.9860926,71337.4765625,71429.921875,72029.84375,71613.1171875,71557.4140625,71631.53125,71819.46875,71931.40625,0.53076171875,0.779052734375,0.343505859375,-1.9531248807907104,-0.2441406100988388,0.7019042372703552,60.0,954.0,1.0
22041.9885899,72174.859375,72267.3984375,72868.03125,72450.6796875,72394.890625,72469.0078125,72656.765625,72768.8828125,0.529541015625,0.779296875,0.34423828125,-1.9226073026657104,-0.3662109076976776,0.7934569716453552,60.0,955.0,1.0
22041.9910826,74219.5078125,74312.671875,74914.375,74496.046875,74439.8984375,74514.7265625,74702.75,74814.5078125,0.529052734375,0.777099609375,0.3427734375,-2.014159917831421,-0.3051757514476776,0.7019042372703552,60.0,956.0,1.0
22041.9935828,73893.3515625,73986.421875,74588.21875,74170.0625,74113.5625,74188.84375,74376.8671875,74488.171875,0.5283203125,0.779052734375,0.345703125,-2.044677495956421,-0.1831054538488388,0.6713866591453552,60.0,957.0,1.0
22041.9961028,71787.90625,71880.53125,72480.5390625,72063.546875,72007.7578125,72082.4140625,72270.2578125,72381.5703125,0.52880859375,0.77783203125,0.345947265625,-2.075195074081421,-0.1831054538488388,0.7019042372703552,60.0,958.0,1.0
22042.0004051,72111.203125,72203.6484375,72804.015625,72386.578125,72331.234375,72405.7109375,72593.4609375,72704.7734375,0.529052734375,0.778076171875,0.344482421875,-2.014159917831421,-0.2746581733226776,0.7324218153953552,60.0,959.0,1.0
22042.0004114,74252.765625,74345.8359375,74947.9921875,74529.125,74473.15625,74548.34375,74736.28125,74848.0390625,0.529296875,0.77734375,0.3427734375,-1.9531248807907104,-0.2441406100988388,0.6713866591453552,60.0,960.0,1.0
22042.0147615,74454.203125,74547.2734375,75149.515625,74730.46875,74674.3203125,74749.9609375,74937.359375,75049.203125,0.52978515625,0.77783203125,0.342529296875,-1.9226073026657104,-0.1831054538488388,0.7324218153953552,60.0,961.0,1.0
22042.0147671,72330.15625,72422.4296875,73023.421875,72605.625,72549.5625,72624.7578125,72812.328125,72924.0,0.530517578125,0.7802734375,0.342529296875,-1.9531248807907104,-0.3356933295726776,0.7629393935203552,60.0,962.0,1.0
22042.0147693,72111.109375,72203.3828125,72804.375,72386.9296875,72331.0546875,72406.0625,72593.375,72704.953125,0.530029296875,0.780517578125,0.341796875,-1.9836424589157104,-0.3051757514476776,0.7629393935203552,60.0,963.0,1.0
22042.017349,74219.6875,74312.9375,74915.09375,74496.3984375,74440.1640625,74515.8046875,74703.1953125,74814.8671875,0.5283203125,0.77978515625,0.343505859375,-2.014159917831421,-0.2441406100988388,0.6408690810203552,60.0,964.0,1.0
22042.019853,74921.0859375,75014.6015625,75617.203125,75198.0703125,75141.828125,75217.2890625,75405.046875,75516.8046875,0.530517578125,0.779052734375,0.3427734375,-1.9836424589157104,-0.3051757514476776,0.6103515028953552,60.0,965.0,1.0
22042.0235787,72943.3125,73036.3828125,73637.375,73219.671875,73163.8828125,73238.265625,73426.2890625,73537.9609375,0.52978515625,0.779296875,0.343994140625,-1.9531248807907104,-0.1220703050494194,0.6713866591453552,60.0,966.0,1.0
22042.0323506,72195.515625,72288.046875,72889.0390625,72471.421875,72415.9921875,72490.46875,72678.1328125,72789.265625,0.530029296875,0.779052734375,0.3427734375,-1.9836424589157104,-0.2136230319738388,0.6713866591453552,60.0,967.0,1.0
22042.0354103,74132.421875,74225.6796875,74828.1875,74409.6796875,74353.2578125,74428.6328125,74616.203125,74727.875,0.52734375,0.7802734375,0.343017578125,-2.044677495956421,-0.2136230319738388,0.6408690810203552,60.0,968.0,1.0
22042.0354152,75290.78125,75384.03125,75987.0859375,75567.9453125,75511.6171875,75587.2578125,75774.7421875,75886.765625,0.52783203125,0.779541015625,0.343017578125,-2.044677495956421,-0.2441406100988388,0.6713866591453552,60.0,969.0,1.0
22042.0460899,73607.4296875,73700.234375,74302.2109375,73883.875,73828.171875,73903.1875,74090.5859375,74202.25,0.527587890625,0.7783203125,0.342041015625,-1.9836424589157104,-0.2136230319738388,0.8239745497703552,60.0,970.0,1.0
22042.0491603,72366.4609375,72459.171875,73060.1640625,72642.3671875,72586.6640625,72661.5,72849.078125,72960.75,0.52880859375,0.778076171875,0.343017578125,-1.9836424589157104,-0.1831054538488388,0.7934569716453552,60.0,971.0,1.0
22042.0491659,74006.453125,74099.703125,74701.765625,74283.1640625,74227.2890625,74302.65625,74489.515625,74601.71875,0.52978515625,0.7802734375,0.34521484375,-1.9836424589157104,-0.1831054538488388,0.6713866591453552,60.0,972.0,1.0
22042.0548281,75559.1796875,75653.234375,76256.375,75837.0546875,75780.5546875,75856.546875,76043.5859375,76155.2578125,0.529296875,0.779296875,0.34521484375,-2.014159917831421,-0.2746581733226776,0.5798339247703552,60.0,973.0,1.0
22042.0579139,74287.7265625,74381.0625,74983.3125,74564.796875,74508.46875,74584.109375,74771.1484375,74882.8203125,0.52880859375,0.778564453125,0.344970703125,-1.9836424589157104,-0.2136230319738388,0.5798339247703552,60.0,974.0,1.0
22042.0579213,72635.125,72728.0234375,73329.1953125,72911.390625,72855.421875,72930.4375,73117.921875,73229.328125,0.527099609375,0.77783203125,0.344970703125,-1.9531248807907104,-0.2441406100988388,0.6103515028953552,60.0,975.0,1.0
22042.0635765,73878.8671875,73972.2109375,74574.453125,74155.671875,74099.4375,74174.984375,74362.5625,74473.78125,0.52734375,0.77880859375,0.345947265625,-1.9531248807907104,-0.1525878757238388,0.6103515028953552,60.0,976.0,1.0
22042.0777696,75738.796875,75832.859375,76436.171875,76016.3203125,75960.2578125,76035.9921875,76223.4765625,76334.875,0.52734375,0.77880859375,0.343505859375,-1.9531248807907104,-0.2136230319738388,0.6713866591453552,60.0,977.0,1.0
22042.0777752,74959.8828125,75053.40625,75656.1875,75236.78125,75180.8984375,75256.625,75444.203125,75555.515625,0.528564453125,0.777099609375,0.34326171875,-1.9531248807907104,-0.3356933295726776,0.6408690810203552,60.0,978.0,1.0
22042.0848375,72999.8203125,73092.3515625,73693.9765625,73276.171875,73220.1171875,73295.3046875,73483.0625,73594.015625,0.5283203125,0.776611328125,0.34326171875,-1.9531248807907104,-0.3356933295726776,0.7019042372703552,60.0,979.0,1.0
22042.0873502,73767.2890625,73859.9140625,74461.796875,74043.1953125,73987.40625,74062.8671875,74250.3515625,74361.6640625,0.528076171875,0.77783203125,0.34619140625,-1.9836424589157104,-0.2136230319738388,0.7629393935203552,60.0,980.0,1.0
22042.0898398,75834.46875,75928.078125,76531.3046875,76111.625,76055.3046875,76131.5625,76318.9609375,76430.5390625,0.5283203125,0.777099609375,0.34375,-1.9836424589157104,-0.2136230319738388,0.8239745497703552,60.0,981.0,1.0
22042.0923534,75580.8203125,75674.3359375,76277.4765625,75858.0703125,75801.7421875,75877.6484375,76065.2265625,76176.890625,0.528076171875,0.77734375,0.34326171875,-1.8920897245407104,-0.3051757514476776,0.7019042372703552,60.0,982.0,1.0
22042.0954068,73459.1875,73552.3515625,74153.96875,73735.9921875,73679.671875,73755.125,73942.2578125,74053.921875,0.52880859375,0.778564453125,0.34130859375,-1.9836424589157104,-0.2746581733226776,0.6408690810203552,60.0,983.0,1.0
22042.0954114,73703.359375,73796.5234375,74398.3203125,73980.609375,73923.8359375,73999.5625,74186.78125,74298.3671875,0.528564453125,0.77783203125,0.343017578125,-1.9531248807907104,-0.2746581733226776,0.7629393935203552,60.0,984.0,1.0
22042.1035778,75850.109375,75943.8125,76547.3046875,76127.9921875,76070.9453125,76147.390625,76334.34375,76446.1875,0.52880859375,0.7783203125,0.344970703125,-2.075195074081421,-0.2136230319738388,0.7019042372703552,60.0,985.0,1.0
22042.1079183,76123.1640625,76216.5,76820.359375,76400.7734375,76343.4609375,76420.078125,76607.1171875,76719.328125,0.528564453125,0.7783203125,0.342529296875,-2.136230230331421,-0.2746581733226776,0.7934569716453552,60.0,986.0,1.0
22042.1079242,74006.0,74098.8046875,74701.4140625,74282.71875,74226.03125,74302.2109375,74489.3359375,74601.0078125,0.52685546875,0.77783203125,0.343505859375,-2.105712652206421,-0.2441406100988388,0.7324218153953552,60.0,987.0,1.0
22042.1161817,73710.78125,73803.765625,74405.828125,73987.40625,73930.9921875,74006.6328125,74194.296875,74305.4296875,0.530029296875,0.779052734375,0.343994140625,-2.105712652206421,-0.2136230319738388,0.7019042372703552,60.0,988.0,1.0
22042.1204303,75801.8359375,75895.4375,76499.203125,76079.4375,76022.9375,76099.0234375,76286.421875,76398.0,0.528564453125,0.780517578125,0.34375,-2.075195074081421,-0.2441406100988388,0.7324218153953552,60.0,989.0,1.0
22042.1204369,76568.2265625,76662.109375,77266.2265625,76846.28125,76789.6875,76865.6875,77052.9921875,77165.0234375,0.5283203125,0.78173828125,0.344970703125,-2.014159917831421,-0.3051757514476776,0.6713866591453552,60.0,990.0,1.0
22042.1266795,74620.3203125,74713.484375,75315.9921875,74897.484375,74840.9765625,74916.4375,75103.7421875,75215.859375,0.52978515625,0.779541015625,0.347412109375,-1.9226073026657104,-0.2136230319738388,0.7019042372703552,60.0,991.0,1.0
22042.1266861,73797.7734375,73890.4921875,74493.0,74074.84375,74018.4296875,74093.625,74281.015625,74392.8671875,0.528564453125,0.7783203125,0.345947265625,-1.9226073026657104,-0.2746581733226776,0.7324218153953552,60.0,992.0,1.0
22042.1285915,75701.3359375,75794.59375,76398.359375,75979.125,75922.4453125,75998.53125,76185.65625,76297.7734375,0.5283203125,0.77783203125,0.34375,-1.9226073026657104,-0.1525878757238388,0.6713866591453552,60.0,993.0,1.0
22042.142351,76920.046875,77013.4765625,77617.421875,77197.4765625,77141.0625,77217.3203125,77404.453125,77516.65625,0.529296875,0.77880859375,0.343505859375,-1.9226073026657104,-0.1831054538488388,0.7934569716453552,60.0,994.0,1.0
22042.1454083,75284.96875,75378.4921875,75981.2734375,75562.21875,75505.71875,75581.8046875,75768.9296875,75880.78125,0.5302734375,0.779296875,0.344482421875,-1.9531248807907104,-0.3051757514476776,0.9155272841453552,60.0,995.0,1.0
22042.1454128,73979.2734375,74072.34375,74674.6796875,74256.078125,74199.65625,74275.296875,74462.6953125,74574.453125,0.530517578125,0.779052734375,0.34326171875,-2.044677495956421,-0.3051757514476776,0.8544921278953552,60.0,996.0,1.0
22042.1473509,75571.6953125,75665.0390625,76268.359375,75848.953125,75792.7109375,75868.6171875,76056.1953125,76167.953125,0.530517578125,0.779296875,0.34521484375,-2.014159917831421,-0.2136230319738388,0.7324218153953552,60.0,997.0,1.0
22042.1585919,77171.28125,77265.15625,77869.0078125,77449.15625,77392.7421875,77468.828125,77656.578125,77768.0703125,0.53125,0.77783203125,0.344970703125,-1.8920897245407104,-0.2136230319738388,0.6713866591453552,60.0,998.0,1.0
22042.1616576,75960.0859375,76053.6953125,76656.921875,76237.8671875,76181.546875,76257.0,76444.4921875,76556.4296875,0.529052734375,0.779296875,0.34326171875,-1.8920897245407104,-0.2746581733226776,0.7934569716453552,60.0,999.0,1.0
22042.1616616,74252.0546875,74345.2109375,74947.3671875,74529.2109375,74472.796875,74547.8984375,74735.3828125,74846.96875,0.5283203125,0.7763671875,0.344970703125,-1.9531248807907104,-0.2136230319738388,0.8239745497703552,60.0,1000.0,1.0
22042.1635767,75434.4609375,75527.9765625,76130.671875,75711.7109375,75655.5625,75730.9296875,75918.421875,76029.90625,0.529052734375,0.77880859375,0.3447265625,-1.9531248807907104,-0.1220703050494194,0.6713866591453552,60.0,1001.0,1.0
22042.1729071,77330.421875,77424.390625,78028.6953125,77608.75,77552.6875,77628.4140625,77815.6328125,77927.6640625,0.530517578125,0.77880859375,0.347412109375,-2.014159917831421,-0.1831054538488388,0.7324218153953552,60.0,1002.0,1.0
22042.172912,76619.90625,76713.6953125,77317.28125,76897.875,76841.3671875,76917.453125,77104.8515625,77216.4296875,0.530029296875,0.777099609375,0.347900390625,-1.9226073026657104,-0.2441406100988388,0.7324218153953552,60.0,1003.0,1.0
22042.1748285,74627.0234375,74720.2734375,75322.4296875,74904.09375,74847.6796875,74923.140625,75110.8984375,75222.4765625,0.52978515625,0.777099609375,0.347900390625,-1.9226073026657104,-0.2136230319738388,0.7019042372703552,60.0,1004.0,1.0
22042.1785718,75323.953125,75417.7421875,76020.703125,75601.2890625,75544.96875,75620.515625,75808.1796875,75919.8515625,0.530029296875,0.77490234375,0.349365234375,-2.044677495956421,-0.1831054538488388,0.6408690810203552,60.0,1005.0,1.0
22042.1941567,77409.28125,77503.4296875,78107.9921875,77687.515625,77631.0078125,77707.09375,77894.7578125,78006.7890625,0.529296875,0.776123046875,0.34619140625,-2.044677495956421,-0.2746581733226776,0.7019042372703552,60.0,1006.0,1.0
22042.1941624,77227.78125,77321.484375,77925.6953125,77505.484375,77449.15625,77525.421875,77712.90625,77824.7578125,0.529541015625,0.778564453125,0.343017578125,-2.014159917831421,-0.2136230319738388,0.7324218153953552,60.0,1007.0,1.0
22042.1966552,75093.640625,75186.53125,75789.4921875,75370.625,75314.3828125,75390.0234375,75577.2421875,75689.09375,0.529296875,0.779052734375,0.34326171875,-1.8920897245407104,-0.1831054538488388,0.7629393935203552,60.0,1008.0,1.0
22042.1966589,75260.828125,75353.90625,75956.8671875,75538.171875,75481.6640625,75557.484375,75744.609375,75856.28125,0.529541015625,0.778564453125,0.344482421875,-1.9531248807907104,-0.1525878757238388,0.7324218153953552,60.0,1009.0,1.0
22042.1985834,77407.40625,77501.1875,78105.578125,77685.4609375,77629.3125,77705.3984375,77892.703125,78004.4609375,0.529052734375,0.779052734375,0.347412109375,-1.8615721464157104,-0.2136230319738388,0.7934569716453552,60.0,1010.0,1.0
22042.2010897,77750.3671875,77844.2421875,78448.3671875,78028.2421875,77971.921875,78048.1796875,78235.578125,78347.515625,0.528564453125,0.77783203125,0.34619140625,-1.9836424589157104,-0.2746581733226776,0.7934569716453552,60.0,1011.0,1.0
22042.2098371,75645.7265625,75738.7109375,76341.8515625,75922.7109375,75866.828125,75942.5625,76129.6875,76241.265625,0.52783203125,0.780517578125,0.345703125,-1.9836424589157104,-0.2746581733226776,0.7934569716453552,60.0,1012.0,1.0
22042.2141789,75269.59375,75362.484375,75965.625,75546.7578125,75490.4296875,75566.3359375,75753.4609375,75865.0390625,0.52783203125,0.779541015625,0.343505859375,-2.044677495956421,-0.2746581733226776,0.6408690810203552,60.0,1013.0,1.0
22042.2141858,77338.734375,77432.34375,78036.828125,77616.796875,77560.46875,77636.9140625,77823.7734375,77935.9765625,0.528564453125,0.780517578125,0.344970703125,-2.044677495956421,-0.3051757514476776,0.7324218153953552,60.0,1014.0,1.0
22042.2173501,78172.546875,78267.140625,78871.796875,78451.40625,78394.90625,78471.5234375,78658.3828125,78770.5,0.527587890625,0.778076171875,0.34130859375,-1.9836424589157104,-0.1831054538488388,0.7629393935203552,60.0,1015.0,1.0
22042.2310743,76261.296875,76355.4375,76958.9375,76539.796875,76483.46875,76559.375,76746.328125,76858.0859375,0.52783203125,0.77783203125,0.343994140625,-1.9836424589157104,-0.1525878757238388,0.7019042372703552,60.0,1016.0,1.0
22042.2341528,75364.0078125,75457.2578125,76060.21875,75641.796875,75585.828125,75661.015625,75848.234375,75960.2578125,0.52880859375,0.7802734375,0.344970703125,-1.9836424589157104,-0.1831054538488388,0.7324218153953552,60.0,1017.0,1.0
22042.2341576,77227.25,77320.9453125,77925.4296875,77505.5703125,77449.15625,77525.421875,77712.4609375,77824.6640625,0.528076171875,0.779541015625,0.343017578125,-2.044677495956421,-0.2441406100988388,0.7934569716453552,60.0,1018.0,1.0
22042.2360813,78502.3671875,78596.6953125,79201.7109375,78781.2265625,78724.3671875,78801.171875,78988.65625,79100.4140625,0.52783203125,0.779052734375,0.341796875,-1.9531248807907104,-0.2746581733226776,0.8850097060203552,60.0,1019.0,1.0
22042.2398331,76922.1015625,77015.9765625,77619.921875,77200.3359375,77143.828125,77219.9140625,77407.4921875,77519.0703125,0.5263671875,0.780029296875,0.34423828125,-1.9836424589157104,-0.2441406100988388,0.8239745497703552,60.0,1020.0,1.0
22042.2491577,75555.6953125,75648.859375,76252.171875,75833.3046875,75776.53125,75852.6171875,76039.921875,76151.5,0.529052734375,0.779052734375,0.34765625,-2.075195074081421,-0.3051757514476776,0.7934569716453552,60.0,1021.0,1.0
22042.2491638,77094.296875,77188.0859375,77792.2109375,77372.4453125,77315.671875,77391.9375,77579.2421875,77691.1796875,0.530517578125,0.77734375,0.3466796875,-2.105712652206421,-0.1831054538488388,0.7019042372703552,60.0,1022.0,1.0
22042.2554094,78741.53125,78835.9453125,79440.875,79020.21875,78963.4453125,79039.8828125,79227.375,79339.21875,0.529541015625,0.778076171875,0.345458984375,-2.044677495956421,-0.2441406100988388,0.7324218153953552,60.0,1023.0,1.0
22042.2554165,77599.984375,77693.859375,78298.2578125,77878.484375,77821.8046875,77897.890625,78085.2890625,78197.1328125,0.528076171875,0.7783203125,0.34423828125,-2.044677495956421,-0.1831054538488388,0.7019042372703552,60.0,1024.0,1.0
22042.261075,75839.921875,75933.2578125,76536.4921875,76117.53125,76061.109375,76136.75,76324.0546875,76435.90625,0.52783203125,0.77880859375,0.344970703125,-2.014159917831421,-0.1525878757238388,0.7019042372703552,60.0,1025.0,1.0
22042.2729075,76948.8359375,77042.8046875,77646.5703125,77226.9765625,77170.5625,77246.203125,77433.8671875,77545.71875,0.528076171875,0.7783203125,0.34716796875,-2.075195074081421,-0.2441406100988388,0.7019042372703552,60.0,1026.0,1.0
22042.2729144,78880.6484375,78975.3359375,79579.9921875,79159.78125,79102.9140625,79179.625,79366.9375,79478.9609375,0.528564453125,0.779296875,0.34521484375,-2.166747808456421,-0.1831054538488388,0.7019042372703552,60.0,1027.0,1.0
22042.2797617,78246.7578125,78341.3515625,78945.3828125,78525.5234375,78469.0234375,78545.2890625,78732.5,78844.796875,0.530517578125,0.780029296875,0.347900390625,-2.105712652206421,-0.2746581733226776,0.7324218153953552,60.0,1028.0,1.0
22042.2797668,76222.3125,76316.28125,76919.7734375,76500.8125,76444.3125,76519.5,76706.9921875,76819.1953125,0.5302734375,0.7783203125,0.3447265625,-2.044677495956421,-0.3051757514476776,0.6408690810203552,60.0,1029.0,1.0
22042.2797686,76844.5,76938.1953125,77542.2265625,77122.734375,77066.046875,77141.953125,77329.2578125,77441.1953125,0.52978515625,0.77880859375,0.3466796875,-2.014159917831421,-0.1831054538488388,0.6713866591453552,60.0,1030.0,1.0
22042.282344,78944.9375,79039.4375,79644.2734375,79224.2421875,79167.109375,79243.9140625,79431.1328125,79542.890625,0.5302734375,0.7783203125,0.343994140625,-2.044677495956421,-0.1831054538488388,0.7324218153953552,60.0,1031.0,1.0
22042.2860863,78838.8046875,78933.578125,79538.2421875,79118.1171875,79061.078125,79137.7890625,79325.09375,79436.671875,0.52880859375,0.777587890625,0.342529296875,-2.044677495956421,-0.1831054538488388,0.7324218153953552,60.0,1032.0,1.0
22042.2973483,76697.78125,76791.75,77395.6015625,76976.1953125,76919.421875,76995.328125,77183.078125,77294.5703125,0.528564453125,0.779052734375,0.346435546875,-2.014159917831421,-0.2441406100988388,0.7934569716453552,60.0,1033.0,1.0
22042.3023282,76788.3515625,76882.671875,77486.2578125,77066.671875,77009.9921875,77085.8984375,77273.7421875,77385.3203125,0.52783203125,0.778564453125,0.344482421875,-2.014159917831421,-0.2441406100988388,0.7934569716453552,60.0,1034.0,1.0
22042.3023352,78932.328125,79027.3671875,79632.3828125,79211.3671875,79154.953125,79231.0390625,79418.96875,79530.7265625,0.52880859375,0.778564453125,0.345947265625,-1.9836424589157104,-0.1831054538488388,0.7324218153953552,60.0,1035.0,1.0
22042.3023376,79344.2265625,79439.265625,80044.375,79623.4453125,79566.9375,79643.5625,79830.8671875,79942.71875,0.5283203125,0.779296875,0.346435546875,-1.9836424589157104,-0.3051757514476776,0.7934569716453552,60.0,1036.0,1.0
22042.3048185,77254.609375,77348.3046875,77952.4296875,77532.5703125,77476.421875,77552.78125,77739.4609375,77851.21875,0.528076171875,0.77783203125,0.3466796875,-1.9836424589157104,-0.2746581733226776,0.7324218153953552,60.0,1037.0,1.0
22042.3185801,76805.421875,76898.765625,77502.796875,77082.9453125,77026.6171875,77102.703125,77290.1875,77401.7734375,0.52880859375,0.77880859375,0.34619140625,-1.9836424589157104,-0.2441406100988388,0.7629393935203552,60.0,1038.0,1.0
22042.3216616,78854.6328125,78949.140625,79553.796875,79133.4921875,79076.71875,79153.25,79340.828125,79452.9453125,0.52783203125,0.77880859375,0.34423828125,-1.9836424589157104,-0.2136230319738388,0.7324218153953552,60.0,1039.0,1.0
22042.3216683,79751.7421875,79846.3359375,80451.796875,80030.78125,79974.1875,80050.8984375,80238.1171875,80350.3203125,0.5283203125,0.77685546875,0.343994140625,-1.8920897245407104,-0.1831054538488388,0.6408690810203552,60.0,1040.0,1.0
22042.3304133,77876.34375,77970.3984375,78574.96875,78154.578125,78098.4296875,78174.25,78361.640625,78473.7578125,0.528076171875,0.778564453125,0.34326171875,-1.9226073026657104,-0.2746581733226776,0.6408690810203552,60.0,1041.0,1.0
22042.3304184,76906.1875,77000.3359375,77604.0078125,77184.15625,77128.09375,77203.640625,77391.21875,77503.25,0.52978515625,0.77783203125,0.34423828125,-1.9836424589157104,-0.2441406100988388,0.6408690810203552,60.0,1042.0,1.0
22042.3391591,78730.625,78825.1328125,79429.25,79009.21875,78952.625,79028.796875,79216.015625,79328.4921875,0.529541015625,0.776611328125,0.34228515625,-1.9836424589157104,-0.2746581733226776,0.6103515028953552,60.0,1043.0,1.0
22042.3391648,80063.1484375,80158.1875,80763.203125,80342.3671875,80285.953125,80362.484375,80550.1484375,80662.3515625,0.5283203125,0.777099609375,0.343994140625,-1.9836424589157104,-0.2746581733226776,0.6408690810203552,60.0,1044.0,1.0
22042.3416597,78536.8828125,78631.3828125,79236.1328125,78815.4765625,78759.328125,78835.4140625,79022.8984375,79134.65625,0.527099609375,0.77685546875,0.34423828125,-2.014159917831421,-0.2136230319738388,0.7019042372703552,60.0,1045.0,1.0
22042.3416655,77103.2421875,77197.203125,77801.328125,77381.5625,77324.8828125,77401.140625,77588.1875,77699.9453125,0.529052734375,0.777587890625,0.34228515625,-2.105712652206421,-0.2136230319738388,0.7019042372703552,60.0,1046.0,1.0
22042.3523491,78584.53125,78678.859375,79283.515625,78863.125,78806.4453125,78882.9765625,79070.28125,79182.3984375,0.52734375,0.778564453125,0.34375,-2.014159917831421,-0.2441406100988388,0.7019042372703552,60.0,1047.0,1.0
22042.3566646,80276.828125,80371.9609375,80977.3359375,80556.140625,80499.453125,80576.2578125,80763.828125,80875.9453125,0.526611328125,0.77880859375,0.34521484375,-1.9836424589157104,-0.2136230319738388,0.7019042372703552,60.0,1048.0,1.0
22042.3566721,79201.7109375,79296.3046875,79901.0546875,79480.6640625,79423.890625,79500.421875,79688.0859375,79800.2890625,0.52734375,0.779541015625,0.345458984375,-1.9836424589157104,-0.1831054538488388,0.6713866591453552,60.0,1049.0,1.0
22042.3654072,77395.0625,77488.9453125,78093.2421875,77673.296875,77617.0625,77692.7890625,77880.546875,77992.5703125,0.529541015625,0.781005859375,0.344970703125,-1.9836424589157104,-0.1525878757238388,0.7324218153953552,60.0,1050.0,1.0
22042.3654147,78441.9296875,78536.2578125,79140.734375,78720.4375,78663.9296875,78740.375,78927.5859375,79040.0625,0.52978515625,0.777587890625,0.345703125,-1.9836424589157104,-0.03051757626235485,0.7019042372703552,60.0,1051.0,1.0
22042.3716588,80401.375,80496.1484375,81101.5234375,80680.59375,80623.546875,80700.796875,80888.1953125,81000.3984375,0.529052734375,0.77685546875,0.343505859375,-1.9836424589157104,-0.1831054538488388,0.7019042372703552,60.0,1052.0,1.0
22042.3716629,79836.6796875,79931.5390625,80536.5546875,80115.8046875,80059.03125,80135.8359375,80323.234375,80435.53125,0.528564453125,0.777587890625,0.343994140625,-2.075195074081421,-0.3051757514476776,0.6713866591453552,60.0,1053.0,1.0
22042.3823489,77781.75,77875.984375,78480.109375,78060.0703125,78003.65625,78079.921875,78267.3203125,78379.1640625,0.529296875,0.778076171875,0.344970703125,-2.014159917831421,-0.2136230319738388,0.6713866591453552,60.0,1054.0,1.0
22042.3873242,78324.6328125,78419.0390625,79023.34375,78603.21875,78546.625,78623.3359375,78810.8203125,78922.4921875,0.52783203125,0.77783203125,0.344970703125,-1.9836424589157104,-0.3356933295726776,0.7629393935203552,60.0,1055.0,1.0
22042.3873301,80438.03125,80533.1640625,81138.4453125,80717.7890625,80660.65625,80738.171875,80925.296875,81037.234375,0.52880859375,0.778076171875,0.34716796875,-2.014159917831421,-0.2441406100988388,0.7934569716453552,60.0,1056.0,1.0
22042.3873326,80410.046875,80505.0859375,81110.28125,80689.8046875,80632.3984375,80710.2734375,80897.2265625,81009.25,0.5283203125,0.778564453125,0.345703125,-2.044677495956421,-0.2136230319738388,0.7324218153953552,60.0,1057.0,1.0
22042.3898196,78265.6171875,78359.5859375,78963.6171875,78543.8515625,78487.078125,78563.703125,78751.1015625,78862.7734375,0.52880859375,0.779052734375,0.34375,-1.9836424589157104,-0.2746581733226776,0.7019042372703552,60.0,1058.0,1.0
22042.3935728,78276.3515625,78370.2265625,78974.8828125,78554.765625,78498.078125,78574.609375,78761.7421875,78873.5,0.527099609375,0.776611328125,0.34375,-1.9226073026657104,-0.2441406100988388,0.6713866591453552,60.0,1059.0,1.0
22042.3971757,80414.515625,80509.5546875,81115.203125,80693.9140625,80637.140625,80714.4765625,80901.515625,81013.546875,0.529541015625,0.778564453125,0.34423828125,-1.9531248807907104,-0.2441406100988388,0.7629393935203552,60.0,1060.0,1.0
22042.4036023,80902.140625,80997.359375,81603.0078125,81181.8046875,81124.9453125,81202.375,81389.5859375,81501.2578125,0.5283203125,0.77734375,0.34326171875,-2.014159917831421,-0.2441406100988388,0.7934569716453552,60.0,1061.0,1.0
22042.4073451,78833.625,78928.21875,79532.7890625,79112.5703125,79055.9765625,79132.8671875,79319.8203125,79431.6640625,0.53076171875,0.7783203125,0.342529296875,-2.014159917831421,-0.1831054538488388,0.8239745497703552,60.0,1062.0,1.0
22042.4161574,78302.9921875,78397.2265625,79001.890625,78581.40625,78525.078125,78601.609375,78788.6484375,78900.859375,0.528564453125,0.7783203125,0.345458984375,-2.044677495956421,-0.1525878757238388,0.7934569716453552,60.0,1063.0,1.0
22042.4191629,80325.203125,80420.421875,81025.7890625,80604.59375,80548.0,80625.0703125,80812.6484375,80924.8515625,0.52880859375,0.777587890625,0.345703125,-2.044677495956421,-0.2441406100988388,0.6713866591453552,60.0,1064.0,1.0
22042.4191683,81291.15625,81386.4609375,81992.4609375,81570.640625,81513.7734375,81591.46875,81778.6015625,81890.8984375,0.529052734375,0.779296875,0.3466796875,-2.044677495956421,-0.2136230319738388,0.6713866591453552,60.0,1065.0,1.0
22042.4323477,79458.4921875,79552.9921875,80158.1015625,79737.171875,79680.3046875,79757.46875,79944.859375,80056.6171875,0.528076171875,0.779296875,0.345703125,-2.044677495956421,-0.1525878757238388,0.7019042372703552,60.0,1066.0,1.0
22042.4354053,78412.9609375,78507.46875,79112.0390625,78691.375,78634.78125,78711.2265625,78899.0703125,79010.828125,0.528076171875,0.77783203125,0.344482421875,-2.014159917831421,-0.1831054538488388,0.7324218153953552,60.0,1067.0,1.0
22042.43541,80192.0703125,80286.9296875,80892.578125,80471.109375,80414.609375,80491.765625,80679.1640625,80791.3671875,0.5283203125,0.7763671875,0.345947265625,-2.014159917831421,-0.3051757514476776,0.7934569716453552,60.0,1068.0,1.0
22042.4379114,81582.3515625,81677.5703125,82283.390625,81861.65625,81805.0625,81882.578125,82069.7109375,82181.828125,0.52880859375,0.779052734375,0.34375,-1.9836424589157104,-0.2746581733226776,0.7324218153953552,60.0,1069.0,1.0
22042.4379201,80115.8984375,80210.9375,80816.1328125,80395.0234375,80338.5234375,80415.140625,80602.8984375,80714.921875,0.529296875,0.7783203125,0.345458984375,-2.105712652206421,-0.2441406100988388,0.7629393935203552,60.0,1070.0,1.0
22042.4398256,78621.1953125,78715.515625,79320.0,78899.78125,78843.1015625,78919.6328125,79107.2109375,79219.328125,0.528564453125,0.780517578125,0.344482421875,-2.105712652206421,-0.2441406100988388,0.7629393935203552,60.0,1071.0,1.0
22042.4485726,80044.7265625,80139.5,80745.0546875,80324.0390625,80267.4453125,80344.5078125,80531.640625,80644.1171875,0.528076171875,0.780517578125,0.34375,-1.9226073026657104,-0.1831054538488388,0.7019042372703552,60.0,1072.0,1.0
22042.4510717,81780.8359375,81876.234375,82482.3203125,82060.765625,82003.8125,82081.6875,82268.8203125,82381.203125,0.5283203125,0.779541015625,0.344482421875,-1.9531248807907104,-0.3051757514476776,0.5493163466453552,60.0,1073.0,1.0
22042.4548173,80775.9921875,80871.1171875,81476.8515625,81055.3828125,80998.609375,81076.125,81263.2578125,81375.375,0.529052734375,0.779541015625,0.3427734375,-1.9226073026657104,-0.3051757514476776,0.7324218153953552,60.0,1074.0,1.0
22042.4610771,78924.28125,79018.4296875,79623.4453125,79202.875,79146.1015625,79222.9921875,79410.2109375,79522.5,0.52880859375,0.77880859375,0.342529296875,-1.8615721464157104,-0.3662109076976776,0.7629393935203552,60.0,1075.0,1.0
22042.4648359,79899.8046875,79994.3046875,80599.6796875,80179.015625,80122.15625,80199.1328125,80386.171875,80498.6484375,0.5283203125,0.7783203125,0.342529296875,-1.9836424589157104,-0.3356933295726776,0.7934569716453552,60.0,1076.0,1.0
22042.4741556,81890.0,81984.6796875,82591.21875,82169.578125,82112.625,82190.5,82377.625,82489.8359375,0.529296875,0.777099609375,0.342529296875,-1.8920897245407104,-0.2441406100988388,0.7934569716453552,60.0,1077.0,1.0
22042.4741616,81401.390625,81496.0703125,82102.25,81680.7890625,81623.8359375,81701.3515625,81888.5703125,82001.046875,0.52783203125,0.77685546875,0.342529296875,-1.9531248807907104,-0.2441406100988388,0.7934569716453552,60.0,1078.0,1.0
22042.4766605,79322.140625,79416.46875,80021.3046875,79600.734375,79544.0546875,79620.765625,79808.0703125,79920.3671875,0.529296875,0.779541015625,0.3447265625,-1.9836424589157104,-0.1831054538488388,0.7934569716453552,60.0,1079.0,1.0
22042.4766679,79791.890625,79886.390625,80491.5859375,80070.65625,80014.2421875,80091.21875,80278.4375,80390.375,0.528076171875,0.779541015625,0.343994140625,-1.9836424589157104,-0.1525878757238388,0.7934569716453552,60.0,1080.0,1.0
22042.4929058,81917.09375,82012.21875,82618.578125,82196.578125,82139.984375,82218.03125,82404.984375,82517.1875,0.529541015625,0.77880859375,0.344970703125,-1.9531248807907104,-0.1831054538488388,0.7629393935203552,60.0,1081.0,1.0
22042.4929139,81959.2890625,82054.421875,82660.421875,82238.7734375,82182.0,82260.0546875,82446.9140625,82559.390625,0.52880859375,0.777099609375,0.343994140625,-2.014159917831421,-0.1831054538488388,0.7629393935203552,60.0,1082.0,1.0
22042.4954054,79812.6328125,79907.3125,80512.4140625,80091.4921875,80034.984375,80111.9609375,80299.0,80411.390625,0.52685546875,0.779052734375,0.34326171875,-1.9836424589157104,-0.3967284858226776,0.8850097060203552,60.0,1083.0,1.0
22042.4954123,79745.9296875,79840.5234375,80445.6328125,80024.703125,79968.109375,80044.8203125,80232.3046875,80344.421875,0.528564453125,0.77880859375,0.34521484375,-1.9531248807907104,-0.3051757514476776,0.7934569716453552,60.0,1084.0,1.0
22042.4973459,81874.0859375,81969.3046875,82575.125,82153.5703125,82096.53125,82174.3125,82361.8046875,82473.828125,0.529296875,0.779541015625,0.3466796875,-1.9836424589157104,-0.1831054538488388,0.8239745497703552,60.0,1085.0,1.0
22042.5148204,82426.171875,82521.5703125,83127.5703125,82705.75,82648.6171875,82726.578125,82913.7109375,83025.828125,0.528564453125,0.779052734375,0.349365234375,-2.014159917831421,-0.3051757514476776,0.7324218153953552,60.0,1086.0,1.0
22042.5185095,80379.46875,80474.2421875,81079.5234375,80658.328125,80601.5546875,80678.625,80865.6640625,80978.3203125,0.5283203125,0.779541015625,0.3447265625,-1.9836424589157104,-0.2746581733226776,0.7324218153953552,60.0,1087.0,1.0
22042.5185164,79766.3203125,79861.359375,80466.1953125,80045.265625,79988.40625,80065.5625,80252.8671875,80365.2578125,0.527587890625,0.779296875,0.344970703125,-2.075195074081421,-0.2746581733226776,0.8544921278953552,60.0,1088.0,1.0
22042.5185191,81756.6953125,81852.0,82458.0,82036.2734375,81979.2265625,82057.1953125,82244.234375,82356.796875,0.529052734375,0.7783203125,0.34423828125,-2.075195074081421,-0.2136230319738388,0.7629393935203552,60.0,1089.0,1.0
22042.5210869,82787.9140625,82883.578125,83489.4921875,83067.9375,83010.71875,83089.0390625,83275.8125,83388.5546875,0.528076171875,0.77978515625,0.34423828125,-1.9836424589157104,-0.2136230319738388,0.7019042372703552,60.0,1090.0,1.0
22042.523582,81003.3515625,81098.484375,81703.765625,81282.9296875,81226.3359375,81303.578125,81490.7109375,81602.828125,0.52734375,0.77880859375,0.343994140625,-2.014159917831421,-0.2746581733226776,0.7934569716453552,60.0,1091.0,1.0
22042.529819,79887.1953125,79981.6953125,80587.0703125,80166.1484375,80109.640625,80186.3515625,80373.75,80485.7734375,0.528076171875,0.779052734375,0.344482421875,-2.014159917831421,-0.3356933295726776,0.7934569716453552,60.0,1092.0,1.0
22042.5341583,81618.6484375,81713.78125,82319.9609375,81898.40625,81841.359375,81918.7890625,82106.2734375,82218.75,0.528076171875,0.7783203125,0.346923828125,-1.9836424589157104,-0.2441406100988388,0.7019042372703552,60.0,1093.0,1.0
22042.5341635,83061.859375,83157.4375,83763.8828125,83341.8828125,83285.375,83363.0703125,83550.46875,83663.1171875,0.52783203125,0.7763671875,0.3447265625,-2.044677495956421,-0.3051757514476776,0.6713866591453552,60.0,1094.0,1.0
22042.5423472,81657.9921875,81753.2109375,82359.1171875,81937.03125,81880.7890625,81958.3046875,82145.796875,82257.9140625,0.5283203125,0.779052734375,0.346435546875,-2.014159917831421,-0.2746581733226776,0.7324218153953552,60.0,1095.0,1.0
22042.5573246,80103.46875,80198.1484375,80803.4375,80382.0625,80325.734375,80402.625,80590.0234375,80702.2265625,0.529541015625,0.77880859375,0.34375,-2.044677495956421,-0.3662109076976776,0.7629393935203552,60.0,1096.0,1.0
22042.5573318,81463.0859375,81558.03125,82164.3046875,81742.75,81686.0625,81763.3125,81950.6171875,82063.0,0.52783203125,0.77880859375,0.34521484375,-1.9226073026657104,-0.3051757514476776,0.7629393935203552,60.0,1097.0,1.0
22042.5573345,83241.7421875,83337.3203125,83944.125,83521.9453125,83464.8125,83542.8671875,83730.3515625,83842.828125,0.52880859375,0.779296875,0.34521484375,-1.8310545682907104,-0.2136230319738388,0.7019042372703552,60.0,1098.0,1.0
22042.5604088,82310.6640625,82406.328125,83012.4140625,82590.6796875,82533.8203125,82611.515625,82798.8203125,82911.03125,0.528076171875,0.779052734375,0.34423828125,-1.8920897245407104,-0.2746581733226776,0.7324218153953552,60.0,1099.0,1.0
22042.5604141,80416.5703125,80511.5234375,81117.2578125,80696.1484375,80639.375,80716.53125,80904.0234375,81016.046875,0.5283203125,0.779052734375,0.343994140625,-1.8920897245407104,-0.2441406100988388,0.7324218153953552,60.0,1100.0,1.0
22042.5623462,81322.359375,81417.3984375,82023.21875,81601.9296875,81545.15625,81622.40625,81809.7109375,81922.1015625,0.52880859375,0.7763671875,0.3447265625,-1.9226073026657104,-0.2441406100988388,0.7629393935203552,60.0,1101.0,1.0
22042.566156,83339.5546875,83435.3125,84041.578125,83619.9375,83562.984375,83640.5859375,83828.078125,83940.4609375,0.52978515625,0.778076171875,0.345947265625,-2.044677495956421,-0.2746581733226776,0.7629393935203552,60.0,1102.0,1.0
22042.5748345,82928.1953125,83024.3046875,83630.21875,83208.578125,83151.8046875,83229.40625,83416.890625,83529.1015625,0.52685546875,0.779296875,0.34521484375,-2.044677495956421,-0.3662109076976776,0.7324218153953552,60.0,1103.0,1.0
22042.5791611,80830.4375,80925.65625,81531.2109375,81109.8359375,81053.6015625,81130.3984375,81317.703125,81430.2734375,0.529052734375,0.779296875,0.34423828125,-2.075195074081421,-0.2746581733226776,0.7324218153953552,60.0,1104.0,1.0
22042.579167,81222.484375,81317.703125,81923.4375,81501.9765625,81444.9296875,81522.2734375,81709.84375,81822.0546875,0.529052734375,0.776123046875,0.34521484375,-1.9836424589157104,-0.2136230319738388,0.6713866591453552,60.0,1105.0,1.0
22042.5848563,83354.84375,83450.6015625,84057.1328125,83635.2265625,83578.1796875,83656.1484375,83843.546875,83955.9296875,0.52734375,0.776123046875,0.345458984375,-2.044677495956421,-0.3051757514476776,0.7324218153953552,60.0,1106.0,1.0
22042.6098483,83470.5390625,83566.203125,84172.7421875,83750.5625,83693.7890625,83771.75,83959.0546875,84071.53125,0.5283203125,0.777099609375,0.343017578125,-1.9531248807907104,-0.3356933295726776,0.7324218153953552,60.0,1107.0,1.0
22042.6154135,81328.078125,81423.1171875,82029.03125,81607.3828125,81550.7890625,81628.21875,81815.5234375,81927.5546875,0.529541015625,0.7783203125,0.3447265625,-1.9226073026657104,-0.3051757514476776,0.7629393935203552,60.0,1108.0,1.0
22042.6154194,81181.8984375,81277.203125,81882.9375,81461.4765625,81404.5234375,81482.3046875,81669.2578125,81781.1953125,0.528564453125,0.779541015625,0.346435546875,-1.9531248807907104,-0.2441406100988388,0.7019042372703552,60.0,1109.0,1.0
22042.6173477,83298.1640625,83394.2734375,84000.71875,83578.8125,83521.6796875,83600.265625,83786.9453125,83899.0625,0.527587890625,0.7802734375,0.34814453125,-1.9226073026657104,-0.3662109076976776,0.6408690810203552,60.0,1110.0,1.0
22042.6198283,83922.4921875,84018.515625,84625.3203125,84202.9609375,84146.2734375,84224.4140625,84411.6328125,84523.9296875,0.52685546875,0.77978515625,0.34814453125,-2.014159917831421,-0.3356933295726776,0.7934569716453552,60.0,1111.0,1.0
22042.6223446,81905.5546875,82001.1328125,82606.7734375,82185.1328125,82128.625,82205.875,82393.5390625,82505.65625,0.5263671875,0.778564453125,0.34521484375,-2.014159917831421,-0.3356933295726776,0.7629393935203552,60.0,1112.0,1.0
22042.6248286,81221.4140625,81316.8984375,81922.1875,81500.546875,81444.21875,81521.1953125,81708.859375,81820.796875,0.5283203125,0.778076171875,0.345947265625,-2.044677495956421,-0.2746581733226776,0.7324218153953552,60.0,1113.0,1.0
22042.6273442,83185.0625,83281.4453125,83887.265625,83465.3515625,83408.3125,83486.359375,83673.671875,83785.7890625,0.528076171875,0.779296875,0.344482421875,-1.9531248807907104,-0.3356933295726776,0.7324218153953552,60.0,1114.0,1.0
22042.6298266,84274.9296875,84371.1328125,84978.03125,84555.671875,84498.2734375,84576.7734375,84764.34375,84876.375,0.529052734375,0.7822265625,0.342529296875,-2.044677495956421,-0.3967284858226776,0.7629393935203552,60.0,1115.0,1.0
22042.6323493,82532.75,82627.96875,83234.59375,82812.7734375,82755.546875,82833.3359375,83020.734375,83133.0234375,0.528564453125,0.779541015625,0.346435546875,-1.9226073026657104,-0.3356933295726776,0.7324218153953552,60.0,1116.0,1.0
22042.6354055,81346.4921875,81441.625,82047.1796875,81626.1640625,81569.03125,81646.1015625,81833.4921875,81946.0625,0.52880859375,0.777587890625,0.342529296875,-1.9226073026657104,-0.2746581733226776,0.7934569716453552,60.0,1117.0,1.0
22042.6354099,83029.1328125,83125.0703125,83731.4296875,83309.6015625,83252.1171875,83330.171875,83517.65625,83629.953125,0.5283203125,0.7783203125,0.345947265625,-1.9226073026657104,-0.2136230319738388,0.8544921278953552,60.0,1118.0,1.0
22042.6373445,84526.1640625,84622.453125,85229.53125,84806.8125,84749.59375,84828.359375,85015.21875,85127.875,0.529541015625,0.7783203125,0.3466796875,-1.9531248807907104,-0.3051757514476776,0.7629393935203552,60.0,1119.0,1.0
22042.6435661,83185.328125,83281.265625,83887.796875,83465.265625,83408.4921875,83486.6328125,83673.8515625,83785.96875,0.52880859375,0.778076171875,0.346923828125,-2.014159917831421,-0.2441406100988388,0.7324218153953552,60.0,1120.0,1.0
22042.6529046,81574.9296875,81670.234375,82276.5078125,81854.234375,81797.640625,81875.3359375,82062.46875,82174.9375,0.52880859375,0.778076171875,0.34765625,-2.044677495956421,-0.4272460639476776,0.7019042372703552,60.0,1121.0,1.0
22042.6529109,82875.8046875,82971.734375,83578.09375,83155.46875,83099.2265625,83177.015625,83363.875,83476.8828125,0.52880859375,0.780029296875,0.3447265625,-1.9836424589157104,-0.3967284858226776,0.7934569716453552,60.0,1122.0,1.0
22042.6554022,84693.7109375,84790.2734375,85396.9921875,84974.1875,84917.5,84996.0,85183.0390625,85295.6015625,0.528564453125,0.7783203125,0.341796875,-2.014159917831421,-0.3051757514476776,0.8239745497703552,60.0,1123.0,1.0
22042.6554056,83831.0234375,83927.5,84533.8515625,84111.5859375,84054.453125,84132.6875,84319.7265625,84432.1953125,0.528076171875,0.77880859375,0.342529296875,-1.9836424589157104,-0.2746581733226776,0.7629393935203552,60.0,1124.0,1.0
22042.6610696,81897.5078125,81993.0859375,82598.90625,82177.1796875,82120.1328125,82198.09375,82385.1328125,82497.609375,0.529541015625,0.7783203125,0.34521484375,-1.9836424589157104,-0.3051757514476776,0.7019042372703552,60.0,1125.0,1.0
22042.6666994,82728.3671875,82823.859375,83430.3046875,83008.3046875,82951.2578125,83029.3125,83216.4453125,83329.453125,0.528076171875,0.779541015625,0.344970703125,-2.075195074081421,-0.2746581733226776,0.8239745497703552,60.0,1126.0,1.0
22042.6667075,84767.921875,84864.2109375,85471.015625,85048.484375,84991.3515625,85070.296875,85256.9765625,85369.71875,0.527587890625,0.778076171875,0.343994140625,-1.9836424589157104,-0.2746581733226776,0.7019042372703552,60.0,1127.0,1.0
22042.6748211,84429.4296875,84525.8984375,85132.703125,84710.078125,84653.03125,84731.890625,84918.75,85031.046875,0.527099609375,0.77880859375,0.343505859375,-1.9836424589157104,-0.1831054538488388,0.7324218153953552,60.0,1128.0,1.0
22042.6816633,82312.4453125,82408.1171875,83014.46875,82592.2890625,82535.515625,82613.2109375,82800.703125,82912.90625,0.526611328125,0.77783203125,0.3447265625,-2.044677495956421,-0.2136230319738388,0.7019042372703552,60.0,1129.0,1.0
22042.6816709,82627.515625,82722.6484375,83329.3671875,82906.9140625,82850.5859375,82927.9296875,83115.6796875,83228.3359375,0.528076171875,0.78125,0.343994140625,-2.014159917831421,-0.1525878757238388,0.7019042372703552,60.0,1130.0,1.0
22042.6841546,84763.359375,84859.3828125,85466.640625,85043.5625,84987.1484375,85065.46875,85252.328125,85365.0703125,0.52978515625,0.77783203125,0.3447265625,-1.9836424589157104,-0.2441406100988388,0.6713866591453552,60.0,1131.0,1.0
22042.6841604,84953.3515625,85049.640625,85656.71875,85234.0,85176.9609375,85255.8125,85442.9453125,85555.5078125,0.529296875,0.77783203125,0.3447265625,-1.9531248807907104,-0.1220703050494194,0.6713866591453552,60.0,1132.0,1.0
22042.6948168,82819.5625,82915.0546875,83521.5859375,83099.40625,83042.6328125,83120.6015625,83308.171875,83420.203125,0.530517578125,0.778076171875,0.344970703125,-2.044677495956421,-0.1525878757238388,0.6713866591453552,60.0,1133.0,1.0
22042.6994165,82593.1875,82688.40625,83294.9453125,82872.765625,82816.1640625,82894.1328125,83081.53125,83193.734375,0.53076171875,0.77734375,0.34326171875,-2.044677495956421,-0.0915527269244194,0.6713866591453552,60.0,1134.0,1.0
22042.699424,84695.0546875,84790.8125,85397.9765625,84975.1640625,84918.21875,84996.890625,85183.9296875,85296.671875,0.527587890625,0.779296875,0.3427734375,-1.8920897245407104,-0.0915527269244194,0.7629393935203552,60.0,1135.0,1.0
22042.7048193,85387.8671875,85483.7109375,86091.0546875,85668.0703125,85611.1171875,85690.2421875,85876.9296875,85990.0234375,0.52734375,0.77880859375,0.345947265625,-1.9226073026657104,-0.1220703050494194,0.8544921278953552,60.0,1136.0,1.0
22042.7091621,83398.7421875,83494.140625,84100.859375,83678.5859375,83621.453125,83699.953125,83887.0859375,83999.734375,0.528564453125,0.778076171875,0.344482421875,-2.014159917831421,-0.1525878757238388,0.7934569716453552,60.0,1137.0,1.0
22042.7091679,82639.5859375,82734.984375,83341.2578125,82919.4296875,82862.125,82940.53125,83127.75,83239.6015625,0.52783203125,0.779296875,0.34716796875,-1.9531248807907104,-0.2136230319738388,0.7324218153953552,60.0,1138.0,1.0
22042.714672,84570.9609375,84666.53125,85273.609375,84850.890625,84793.8515625,84872.9765625,85059.4765625,85172.0390625,0.530029296875,0.77880859375,0.3427734375,-2.014159917831421,-0.3051757514476776,0.6713866591453552,60.0,1139.0,1.0
22042.7210692,85721.4453125,85817.6484375,86424.8125,86001.46875,85945.0546875,86024.5390625,86210.953125,86323.6953125,0.529296875,0.779296875,0.345458984375,-2.014159917831421,-0.3051757514476776,0.6408690810203552,60.0,1140.0,1.0
22042.7254041,84029.2421875,84125.0,84732.0703125,84309.0859375,84252.4921875,84331.171875,84518.1171875,84630.6796875,0.529541015625,0.780029296875,0.346923828125,-2.105712652206421,-0.3051757514476776,0.7019042372703552,60.0,1141.0,1.0
22042.7254098,82778.6171875,82873.921875,83480.8203125,83058.4609375,83001.5078125,83079.828125,83266.8671875,83379.1640625,0.52880859375,0.779296875,0.3447265625,-2.044677495956421,-0.2746581733226776,0.7324218153953552,60.0,1142.0,1.0
22042.7335676,84412.171875,84507.65625,85114.375,84692.1953125,84635.15625,84713.828125,84900.78125,85013.2578125,0.529296875,0.77880859375,0.34423828125,-2.014159917831421,-0.2136230319738388,0.6713866591453552,60.0,1143.0,1.0
22042.7366618,85956.765625,86053.234375,86660.1328125,86237.4140625,86180.1953125,86259.5,86446.5390625,86559.015625,0.52880859375,0.777587890625,0.346923828125,-1.9531248807907104,-0.2136230319738388,0.7629393935203552,60.0,1144.0,1.0
22042.7366663,84676.9921875,84773.109375,85379.9140625,84957.4609375,84900.2421875,84979.4609375,85165.78125,85278.703125,0.529296875,0.779052734375,0.345703125,-1.9531248807907104,-0.2136230319738388,0.7934569716453552,60.0,1145.0,1.0
22042.7448176,83011.96875,83107.7265625,83714.078125,83291.8984375,83234.6796875,83313.09375,83499.7734375,83612.3359375,0.527587890625,0.779296875,0.346435546875,-2.044677495956421,-0.1831054538488388,0.7934569716453552,60.0,1146.0,1.0
22042.7479056,84245.609375,84341.09375,84948.078125,84525.6328125,84468.5,84547.0859375,84733.9453125,84846.5078125,0.5283203125,0.77880859375,0.34521484375,-2.075195074081421,-0.2441406100988388,0.6713866591453552,60.0,1147.0,1.0
22042.7479121,86101.78125,86197.984375,86805.7734375,86382.703125,86325.65625,86404.78125,86591.828125,86704.296875,0.529296875,0.776611328125,0.345703125,-2.014159917831421,-0.1220703050494194,0.7324218153953552,60.0,1148.0,1.0
22042.7535681,85313.484375,85409.6875,86017.296875,85593.953125,85537.265625,85616.125,85803.1640625,85915.546875,0.53076171875,0.779541015625,0.34423828125,-1.9531248807907104,-0.2136230319738388,0.6408690810203552,60.0,1149.0,1.0
22042.756074,83342.4140625,83438.3515625,84044.6171875,83621.7265625,83565.3125,83643.5390625,83830.7578125,83942.9609375,0.53076171875,0.77734375,0.34765625,-2.044677495956421,-0.2441406100988388,0.7934569716453552,60.0,1150.0,1.0
22042.7648168,84099.9609375,84196.703125,84803.0625,84380.1640625,84323.390625,84402.15625,84589.46875,84701.7578125,0.52978515625,0.779296875,0.342529296875,-1.9836424589157104,-0.2136230319738388,0.7019042372703552,60.0,1151.0,1.0
22042.7678963,86159.453125,86256.3671875,86863.625,86440.640625,86383.1484375,86462.9921875,86649.9375,86762.4140625,0.52978515625,0.77783203125,0.346435546875,-1.9531248807907104,-0.2746581733226776,0.7019042372703552,60.0,1152.0,1.0
22042.7679006,85897.3984375,85993.78125,86601.390625,86178.2265625,86120.7421875,86200.578125,86387.0859375,86500.0,0.5283203125,0.777587890625,0.345947265625,-1.9226073026657104,-0.3051757514476776,0.6713866591453552,60.0,1153.0,1.0
22042.7735647,83765.2265625,83861.421875,84468.140625,84045.421875,83988.46875,84067.2421875,84254.0078125,84366.6640625,0.52734375,0.778564453125,0.3447265625,-1.9531248807907104,-0.2746581733226776,0.7019042372703552,60.0,1154.0,1.0
22042.7773429,84002.6015625,84098.53125,84705.6015625,84282.4453125,84225.4921875,84304.5234375,84491.3828125,84603.5,0.529052734375,0.77783203125,0.345458984375,-2.014159917831421,-0.2136230319738388,0.7934569716453552,60.0,1155.0,1.0
22042.7860649,86143.984375,86240.7265625,86848.6015625,86424.9921875,86367.3203125,86447.1640625,86634.1171875,86746.5,0.53076171875,0.779296875,0.345947265625,-1.9836424589157104,-0.1831054538488388,0.7629393935203552,60.0,1156.0,1.0
22042.7904041,86407.5546875,86504.65625,87112.265625,86688.828125,86631.1640625,86711.09375,86898.046875,87010.6953125,0.528564453125,0.7783203125,0.344970703125,-1.9226073026657104,-0.1831054538488388,0.8239745497703552,60.0,1157.0,1.0
22042.7904115,84280.921875,84377.125,84984.109375,84561.2109375,84504.078125,84583.1171875,84770.25,84882.453125,0.528076171875,0.779052734375,0.343994140625,-1.9836424589157104,-0.2746581733226776,0.7019042372703552,60.0,1158.0,1.0
22042.7960735,83976.2265625,84072.25,84679.40625,84256.15625,84199.3828125,84278.0625,84465.0078125,84577.3046875,0.527587890625,0.778564453125,0.34423828125,-1.9531248807907104,-0.0915527269244194,0.6713866591453552,60.0,1159.0,1.0
22042.8004169,86059.9453125,86156.140625,86763.84375,86340.3203125,86283.546875,86363.03125,86549.890625,86662.0078125,0.52783203125,0.77783203125,0.346435546875,-2.044677495956421,-0.3051757514476776,0.7019042372703552,60.0,1160.0,1.0
22042.8004228,86820.53125,86916.8203125,87524.7890625,87101.4453125,87044.4921875,87124.0625,87311.1015625,87423.3125,0.529296875,0.777587890625,0.34375,-2.136230230331421,-0.2746581733226776,0.8239745497703552,60.0,1161.0,1.0
22042.8085677,84867.25,84963.3671875,85570.6171875,85147.7265625,85090.7734375,85169.8046875,85356.9375,85469.0546875,0.529052734375,0.77734375,0.347412109375,-2.136230230331421,-0.2136230319738388,0.7629393935203552,60.0,1162.0,1.0
22042.8128682,84032.546875,84128.3046875,84735.2890625,84312.5703125,84255.6171875,84334.2109375,84521.609375,84633.453125,0.529052734375,0.776123046875,0.344482421875,-2.014159917831421,-0.2136230319738388,0.6103515028953552,60.0,1163.0,1.0
22042.8128734,85927.9765625,86024.359375,86631.875,86208.890625,86151.5859375,86231.0703125,86418.1953125,86530.2265625,0.527587890625,0.7763671875,0.342041015625,-1.9836424589157104,-0.3356933295726776,0.7019042372703552,60.0,1164.0,1.0
22042.8210688,87137.5625,87234.484375,87842.0,87419.015625,87361.890625,87441.546875,87628.140625,87740.96875,0.529296875,0.778076171875,0.34423828125,-1.8920897245407104,-0.2746581733226776,0.7934569716453552,60.0,1165.0,1.0
22042.8235819,85494.3515625,85590.6484375,86197.984375,85775.09375,85718.140625,85797.0859375,85983.5,86096.78125,0.529296875,0.7783203125,0.34375,-1.9531248807907104,-0.2441406100988388,0.7629393935203552,60.0,1166.0,1.0
22042.8260792,84177.296875,84272.875,84880.21875,84457.6796875,84400.640625,84478.9609375,84665.8203125,84778.828125,0.5283203125,0.77685546875,0.344970703125,-1.9531248807907104,-0.2136230319738388,0.8850097060203552,60.0,1167.0,1.0
22042.8348188,85761.0546875,85857.4375,86465.1328125,86042.2421875,85984.5703125,86063.515625,86251.0078125,86363.65625,0.527099609375,0.778076171875,0.34423828125,-1.9531248807907104,-0.2441406100988388,0.6408690810203552,60.0,1168.0,1.0
22042.8391491,87356.7890625,87453.9765625,88061.765625,87638.3359375,87580.84375,87660.59375,87847.546875,87960.46875,0.526123046875,0.77734375,0.345947265625,-2.014159917831421,-0.2746581733226776,0.6103515028953552,60.0,1169.0,1.0
22042.8391542,86140.6796875,86237.5078125,86845.296875,86421.953125,86364.8203125,86444.03125,86630.8984375,86743.7265625,0.5283203125,0.780029296875,0.34375,-1.9836424589157104,-0.2746581733226776,0.6408690810203552,60.0,1170.0,1.0
22042.8498153,84423.078125,84519.3671875,85126.8046875,84703.546875,84647.1328125,84725.6328125,84912.8515625,85024.7890625,0.5283203125,0.77880859375,0.347412109375,-2.014159917831421,-0.3051757514476776,0.6408690810203552,60.0,1171.0,1.0
22042.8529018,85593.59375,85689.796875,86297.671875,85874.2421875,85817.5625,85896.328125,86083.1875,86195.84375,0.52783203125,0.778564453125,0.349365234375,-2.014159917831421,-0.2441406100988388,0.6713866591453552,60.0,1172.0,1.0
22042.8529079,87483.9296875,87580.7578125,88188.8984375,87765.2890625,87708.25,87787.640625,87974.59375,88087.421875,0.529052734375,0.779296875,0.345458984375,-1.9836424589157104,-0.2441406100988388,0.6408690810203552,60.0,1173.0,1.0
22042.8548151,86766.8828125,86863.265625,87471.5859375,87047.890625,86991.0234375,87070.6015625,87257.1015625,87369.84375,0.530029296875,0.779296875,0.344970703125,-2.014159917831421,-0.2441406100988388,0.7629393935203552,60.0,1174.0,1.0
22042.8641592,84763.09375,84859.1171875,85466.546875,85043.5625,84986.7890625,85066.0078125,85252.421875,85364.984375,0.529052734375,0.77880859375,0.345703125,-1.9836424589157104,-0.2746581733226776,0.7324218153953552,60.0,1175.0,1.0
22042.8641667,85448.7578125,85544.6875,86152.296875,85729.1328125,85672.09375,85751.3125,85938.078125,86050.734375,0.529052734375,0.778076171875,0.34619140625,-2.075195074081421,-0.2136230319738388,0.8239745497703552,60.0,1176.0,1.0
22042.8660773,87528.1875,87625.1015625,88232.9765625,87809.640625,87752.234375,87831.8125,88018.3125,88131.5,0.527099609375,0.77587890625,0.345947265625,-1.8920897245407104,-0.2136230319738388,0.7629393935203552,60.0,1177.0,1.0
22042.8748157,87340.4296875,87437.796875,88045.4921875,87621.8828125,87565.015625,87644.234375,87831.0078125,87943.65625,0.529296875,0.778564453125,0.3466796875,-1.9531248807907104,-0.2441406100988388,0.7019042372703552,60.0,1178.0,1.0
22042.881646,85197.1640625,85293.6328125,85900.890625,85477.90625,85421.1328125,85499.71875,85686.671875,85798.875,0.527099609375,0.778076171875,0.344970703125,-1.9226073026657104,-0.2136230319738388,0.7629393935203552,60.0,1179.0,1.0
22042.8816533,85357.203125,85453.3125,86061.015625,85637.9375,85580.71875,85659.84375,85846.53125,85959.0,0.52734375,0.776611328125,0.345947265625,-1.9836424589157104,-0.1220703050494194,0.7324218153953552,60.0,1180.0,1.0
22042.8841467,87496.4453125,87593.09375,88201.6875,87777.8984375,87720.5,87800.515625,87986.9296875,88099.765625,0.52783203125,0.777587890625,0.347412109375,-2.044677495956421,-0.2136230319738388,0.7019042372703552,60.0,1181.0,1.0
22042.8841528,87833.328125,87930.25,88538.75,88114.875,88057.921875,88137.671875,88324.53125,88437.1875,0.529052734375,0.777587890625,0.34619140625,-1.9531248807907104,-0.2441406100988388,0.7629393935203552,60.0,1182.0,1.0
22042.8948144,85722.34375,85818.6328125,86426.5078125,86003.2578125,85946.3984375,86025.703125,86212.3828125,86324.765625,0.52880859375,0.77978515625,0.34521484375,-1.9531248807907104,-0.2441406100988388,0.7019042372703552,60.0,1183.0,1.0
22042.9016477,85334.1328125,85430.15625,86037.9453125,85614.6953125,85557.8359375,85637.046875,85823.640625,85935.84375,0.530029296875,0.779296875,0.346435546875,-1.9226073026657104,-0.2136230319738388,0.7324218153953552,60.0,1184.0,1.0
22042.9016541,87399.171875,87496.0,88104.3203125,87680.625,87623.671875,87703.2421875,87889.921875,88002.578125,0.52978515625,0.77734375,0.34619140625,-1.9531248807907104,-0.3356933295726776,0.7019042372703552,60.0,1185.0,1.0
22042.9078996,88229.9375,88327.3046875,88935.625,88511.6640625,88454.7109375,88534.7265625,88721.5,88834.0625,0.527587890625,0.778564453125,0.343017578125,-2.014159917831421,-0.2746581733226776,0.7324218153953552,60.0,1186.0,1.0
22042.9079058,86311.0,86407.6484375,87015.4375,86592.09375,86535.140625,86614.4453125,86801.3046875,86913.8671875,0.527587890625,0.779052734375,0.343505859375,-2.014159917831421,-0.2441406100988388,0.7324218153953552,60.0,1187.0,1.0
22042.9141514,85400.921875,85497.3046875,86104.828125,85681.75,85624.796875,85704.015625,85890.78125,86003.5234375,0.528564453125,0.779296875,0.347412109375,-2.014159917831421,-0.2136230319738388,0.7019042372703552,60.0,1188.0,1.0
22042.9141586,87255.4921875,87352.234375,87960.6484375,87536.859375,87479.6328125,87559.390625,87746.15625,87858.8984375,0.52783203125,0.776611328125,0.34521484375,-2.075195074081421,-0.3051757514476776,0.7629393935203552,60.0,1189.0,1.0
22042.9198146,88527.484375,88624.9375,89233.4453125,88809.65625,88752.1640625,88831.9140625,89018.7734375,89131.7890625,0.5302734375,0.7763671875,0.343017578125,-2.044677495956421,-0.3051757514476776,0.7629393935203552,60.0,1190.0,1.0
22042.9298249,86943.4609375,87040.46875,87647.9921875,87225.0078125,87167.4296875,87247.0,87434.0390625,87546.6875,0.529541015625,0.7783203125,0.34375,-2.075195074081421,-0.2441406100988388,0.6713866591453552,60.0,1191.0,1.0
22042.9373169,85558.8125,85655.375,86262.2734375,85839.640625,85782.3359375,85861.7265625,86048.5859375,86160.8828125,0.529296875,0.779296875,0.345703125,-2.075195074081421,-0.2746581733226776,0.7324218153953552,60.0,1192.0,1.0
22042.9373226,87081.8671875,87178.8671875,87786.65625,87363.4921875,87306.09375,87385.578125,87572.6171875,87684.734375,0.529541015625,0.7783203125,0.344970703125,-2.014159917831421,-0.2746581733226776,0.8239745497703552,60.0,1193.0,1.0
22042.9373251,88724.8046875,88822.171875,89430.40625,89006.796875,88949.578125,89029.234375,89216.2734375,89328.9296875,0.5283203125,0.77880859375,0.344970703125,-2.014159917831421,-0.2441406100988388,0.7629393935203552,60.0,1194.0,1.0
22042.9404028,87582.8984375,87679.8203125,88287.875,87864.3515625,87807.2265625,87886.4375,88073.390625,88186.21875,0.52880859375,0.779296875,0.34521484375,-2.075195074081421,-0.2441406100988388,0.7324218153953552,60.0,1195.0,1.0
22042.9404094,85811.3046875,85907.5,86515.203125,86091.953125,86035.0859375,86113.765625,86300.890625,86413.4609375,0.530029296875,0.77880859375,0.34521484375,-2.075195074081421,-0.2746581733226776,0.7324218153953552,60.0,1196.0,1.0
22042.9510868,86911.453125,87007.8359375,87615.984375,87192.375,87135.328125,87214.6328125,87401.765625,87514.1484375,0.528564453125,0.777099609375,0.34619140625,-1.9531248807907104,-0.3967284858226776,0.6408690810203552,60.0,1197.0,1.0
22042.957904,88836.65625,88933.9296875,89542.7890625,89119.0,89061.421875,89141.265625,89328.2109375,89441.046875,0.52978515625,0.778564453125,0.347412109375,-2.044677495956421,-0.3967284858226776,0.6713866591453552,60.0,1198.0,1.0
22042.9579112,88200.078125,88297.3515625,88905.859375,88482.3359375,88424.6640625,88504.421875,88691.546875,88804.2890625,0.529052734375,0.77783203125,0.347412109375,-1.9836424589157104,-0.3051757514476776,0.7629393935203552,60.0,1199.0,1.0
22042.9641499,86164.1015625,86260.3046875,86868.5390625,86444.8359375,86387.796875,86466.8359375,86653.78125,86766.8828125,0.527587890625,0.7783203125,0.34521484375,-2.075195074081421,-0.2746581733226776,0.7324218153953552,60.0,1200.0,1.0
22042.9641561,86767.78125,86864.15625,87472.125,87048.6953125,86991.4765625,87070.6875,87257.90625,87370.828125,0.527587890625,0.78076171875,0.346923828125,-1.9836424589157104,-0.1831054538488388,0.7629393935203552,60.0,1201.0,1.0
22042.9785079,88861.6015625,88958.6953125,89567.5546875,89143.234375,89085.921875,89166.1171875,89353.15625,89465.6328125,0.52978515625,0.77880859375,0.34521484375,-1.9836424589157104,-0.1831054538488388,0.7934569716453552,60.0,1202.0,1.0
22042.9785153,88755.0234375,88852.5703125,89461.34375,89037.1015625,88979.796875,89059.9921875,89246.765625,89359.5078125,0.5302734375,0.779296875,0.34521484375,-1.9226073026657104,-0.2441406100988388,0.6713866591453552,60.0,1203.0,1.0
22042.9785178,86605.7734375,86702.6875,87310.4765625,86887.3125,86830.0078125,86909.3984375,87096.2578125,87208.9140625,0.529541015625,0.776611328125,0.343994140625,-1.9226073026657104,-0.2746581733226776,0.6408690810203552,60.0,1204.0,1.0
22042.981647,86680.78125,86777.609375,87385.8515625,86962.5078125,86905.109375,86984.5,87171.0,87283.921875,0.52734375,0.77587890625,0.34716796875,-1.9226073026657104,-0.3356933295726776,0.6408690810203552,60.0,1205.0,1.0
22042.9816522,88814.484375,88911.84375,89520.8828125,89096.921875,89038.984375,89119.359375,89306.0390625,89418.875,0.52734375,0.77685546875,0.34814453125,-2.014159917831421,-0.2441406100988388,0.7019042372703552,60.0,1206.0,1.0
22042.9835749,89227.1875,89324.546875,89933.5859375,89509.4453125,89451.59375,89532.0625,89718.921875,89831.578125,0.527099609375,0.77783203125,0.344970703125,-1.9836424589157104,-0.2441406100988388,0.7629393935203552,60.0,1207.0,1.0
22042.9973422,87133.71875,87230.640625,87838.6953125,87414.90625,87357.4140625,87436.71875,87624.03125,87736.859375,0.531494140625,0.778564453125,0.34521484375,-2.044677495956421,-0.2441406100988388,0.7019042372703552,60.0,1208.0,1.0
22043.0003949,86665.046875,86761.875,87369.6640625,86946.3203125,86888.8359375,86968.140625,87155.265625,87268.0078125,0.530517578125,0.777099609375,0.34375,-1.9836424589157104,-0.1525878757238388,0.6713866591453552,60.0,1209.0,1.0
22043.0003999,88704.6015625,88801.609375,89410.3828125,88986.5,88928.7421875,89008.671875,89195.53125,89308.2734375,0.52880859375,0.77685546875,0.343505859375,-2.105712652206421,-0.1831054538488388,0.7324218153953552,60.0,1210.0,1.0
22043.0060696,89605.734375,89702.828125,90311.6015625,89887.7265625,89829.7890625,89910.2578125,90097.1171875,90210.2109375,0.529052734375,0.7783203125,0.345947265625,-2.044677495956421,-0.2136230319738388,0.7629393935203552,60.0,1211.0,1.0
22043.0153993,87728.546875,87825.375,88433.25,88009.8203125,87952.421875,88032.2578125,88219.390625,88332.21875,0.52880859375,0.777587890625,0.346435546875,-2.014159917831421,-0.2746581733226776,0.7629393935203552,60.0,1212.0,1.0
22043.0154057,86742.03125,86838.6796875,87446.5546875,87023.3046875,86965.7265625,87045.3828125,87232.421875,87345.078125,0.52783203125,0.7783203125,0.345947265625,-1.9836424589157104,-0.3051757514476776,0.7629393935203552,60.0,1213.0,1.0
22043.0179004,88552.875,88650.2421875,89258.4765625,88835.1328125,88777.0234375,88857.1328125,89044.078125,89157.1796875,0.529052734375,0.77978515625,0.34619140625,-1.9836424589157104,-0.2746581733226776,0.7934569716453552,60.0,1214.0,1.0
22043.0179056,89883.8828125,89981.5078125,90590.5546875,90166.765625,90108.9140625,90189.203125,90375.9765625,90489.078125,0.529052734375,0.77783203125,0.345458984375,-2.044677495956421,-0.2746581733226776,0.7019042372703552,60.0,1215.0,1.0
22043.0310645,88358.328125,88455.0625,89064.1953125,88640.2265625,88582.7421875,88662.578125,88849.7109375,88962.359375,0.5283203125,0.777099609375,0.345703125,-2.014159917831421,-0.2746581733226776,0.6408690810203552,60.0,1216.0,1.0
22043.0341597,86909.0390625,87005.78125,87614.1953125,87190.671875,87133.1875,87212.84375,87399.6171875,87512.265625,0.529541015625,0.777099609375,0.343505859375,-1.9836424589157104,-0.2746581733226776,0.6103515028953552,60.0,1217.0,1.0
22043.034166,88376.65625,88473.84375,89082.4375,88658.5546875,88601.0703125,88681.1796875,88867.5,88980.6015625,0.52734375,0.77490234375,0.347900390625,-1.9836424589157104,-0.2441406100988388,0.6713866591453552,60.0,1218.0,1.0
22043.0360801,90066.8046875,90164.53125,90773.5703125,90349.6015625,90291.75,90372.1328125,90558.9921875,90671.9140625,0.52783203125,0.77685546875,0.345947265625,-1.9226073026657104,-0.3356933295726776,0.7629393935203552,60.0,1219.0,1.0
22043.0385622,88994.9921875,89091.9140625,89701.1328125,89276.8046875,89219.5859375,89299.515625,89486.640625,89599.1171875,0.529052734375,0.778564453125,0.346923828125,-1.9531248807907104,-0.2136230319738388,0.6103515028953552,60.0,1220.0,1.0
22043.0448137,87174.671875,87271.3203125,87879.8203125,87455.8515625,87398.3671875,87477.9375,87665.515625,87777.6328125,0.528564453125,0.777587890625,0.3466796875,-2.014159917831421,-0.1525878757238388,0.7629393935203552,60.0,1221.0,1.0
22043.0494153,88203.65625,88300.75,88908.8984375,88485.4609375,88427.7109375,88507.640625,88694.765625,88807.328125,0.52880859375,0.77880859375,0.34716796875,-1.9226073026657104,-0.1220703050494194,0.5798339247703552,60.0,1222.0,1.0
22043.0494207,90160.59375,90258.40625,90867.265625,90443.4765625,90385.453125,90466.3671875,90653.046875,90765.7890625,0.528076171875,0.778564453125,0.346923828125,-1.9531248807907104,-0.1525878757238388,0.6713866591453552,60.0,1223.0,1.0
22043.0523376,89600.3671875,89697.640625,90306.328125,89882.5390625,89824.515625,89905.3359375,90092.1953125,90204.8515625,0.527587890625,0.780029296875,0.345458984375,-2.044677495956421,-0.1831054538488388,0.7629393935203552,60.0,1224.0,1.0
22043.0666465,87536.0546875,87632.703125,88240.578125,87817.1484375,87759.65625,87839.5859375,88026.8984375,88139.1015625,0.52734375,0.77978515625,0.343505859375,-2.044677495956421,-0.1831054538488388,0.8239745497703552,60.0,1225.0,1.0
22043.0666532,88064.71875,88161.0078125,88769.328125,88345.8125,88288.3203125,88368.25,88555.2890625,88667.9453125,0.528076171875,0.780517578125,0.346435546875,-1.9836424589157104,-0.1525878757238388,0.7934569716453552,60.0,1226.0,1.0
22043.0685625,90172.9296875,90270.03125,90879.15625,90455.1015625,90397.34375,90477.6328125,90664.578125,90777.9453125,0.528564453125,0.780029296875,0.346435546875,-1.9226073026657104,-0.2746581733226776,0.7324218153953552,60.0,1227.0,1.0
22043.0710711,90142.890625,90240.5234375,90849.7421875,90425.59375,90367.5703125,90448.0390625,90634.984375,90748.0,0.530029296875,0.778564453125,0.3447265625,-1.9226073026657104,-0.2441406100988388,0.7324218153953552,60.0,1228.0,1.0
22043.0748144,87991.578125,88088.6796875,88697.1796875,88273.2109375,88215.546875,88295.4765625,88482.6015625,88595.078125,0.53076171875,0.77685546875,0.34716796875,-2.014159917831421,-0.3051757514476776,0.7629393935203552,60.0,1229.0,1.0
22043.0891431,87983.8046875,88080.8984375,88689.2265625,88265.34375,88207.859375,88287.6953125,88474.734375,88587.390625,0.53125,0.77734375,0.34765625,-1.9531248807907104,-0.3051757514476776,0.6713866591453552,60.0,1230.0,1.0
22043.0891499,90109.9921875,90207.890625,90816.9296875,90392.78125,90334.9375,90415.40625,90602.53125,90715.09375,0.526123046875,0.7802734375,0.344970703125,-2.044677495956421,-0.2136230319738388,0.6713866591453552,60.0,1231.0,1.0
22043.0910607,90596.6328125,90694.796875,91304.109375,90879.6015625,90822.0234375,90902.4921875,91089.4453125,91202.3671875,0.52734375,0.77978515625,0.343505859375,-2.075195074081421,-0.1831054538488388,0.5798339247703552,60.0,1232.0,1.0
22043.0941658,88526.234375,88623.328125,89231.8359375,88807.7734375,88750.5546875,88830.3046875,89017.2578125,89130.0859375,0.529541015625,0.77880859375,0.341552734375,-2.014159917831421,-0.1525878757238388,0.7324218153953552,60.0,1233.0,1.0
22043.0941711,87976.6484375,88073.390625,88681.8046875,88257.7421875,88200.34375,88280.3671875,88467.40625,88580.234375,0.528076171875,0.777099609375,0.345458984375,-1.9836424589157104,-0.2441406100988388,0.7324218153953552,60.0,1234.0,1.0
22043.0960727,89988.125,90085.4921875,90694.53125,90270.03125,90212.625,90293.09375,90480.1328125,90592.96875,0.5283203125,0.776611328125,0.3466796875,-1.9836424589157104,-0.3051757514476776,0.7019042372703552,60.0,1235.0,1.0
22043.1048168,90957.8359375,91055.9140625,91665.1328125,91240.1796875,91182.78125,91263.3359375,91450.46875,91563.390625,0.527587890625,0.779052734375,0.34423828125,-1.9836424589157104,-0.3051757514476776,0.7324218153953552,60.0,1236.0,1.0
22043.1091579,89126.421875,89224.1484375,89832.46875,89408.234375,89351.1953125,89431.2109375,89617.984375,89730.8125,0.52783203125,0.77880859375,0.34521484375,-1.9531248807907104,-0.3051757514476776,0.6713866591453552,60.0,1237.0,1.0
22043.1091643,88064.0,88160.828125,88769.5078125,88345.453125,88287.9609375,88368.25,88554.578125,88667.5,0.52734375,0.7783203125,0.3466796875,-2.014159917831421,-0.3356933295726776,0.7629393935203552,60.0,1238.0,1.0
22043.1110726,89827.28125,89924.6484375,90534.1328125,90109.453125,90051.875,90132.1640625,90319.109375,90431.9453125,0.527587890625,0.77783203125,0.343994140625,-2.105712652206421,-0.3967284858226776,0.8544921278953552,60.0,1239.0,1.0
22043.124669,91217.5625,91315.640625,91925.21875,91500.625,91442.78125,91523.3359375,91710.4609375,91823.4765625,0.528564453125,0.77880859375,0.34423828125,-2.044677495956421,-0.2136230319738388,0.8239745497703552,60.0,1240.0,1.0
22043.1328998,89754.5078125,89852.2265625,90461.0,90036.765625,89979.2734375,90059.296875,90246.515625,90359.6171875,0.527099609375,0.779296875,0.343505859375,-1.9226073026657104,-0.2136230319738388,0.7629393935203552,60.0,1241.0,1.0
22043.1329073,88241.7421875,88339.1015625,88947.25,88523.734375,88466.0625,88545.7265625,88732.4921875,88845.7734375,0.5283203125,0.7783203125,0.344482421875,-1.9836424589157104,-0.2136230319738388,0.7324218153953552,60.0,1242.0,1.0
22043.1348072,89644.4453125,89742.2578125,90351.1171875,89927.1484375,89869.125,89949.328125,90135.9140625,90249.2890625,0.52783203125,0.778076171875,0.346435546875,-2.014159917831421,-0.2136230319738388,0.6713866591453552,60.0,1243.0,1.0
22043.1373397,91382.1640625,91480.328125,92090.171875,91665.578125,91607.109375,91688.2890625,91874.8828125,91988.0703125,0.52783203125,0.77734375,0.345703125,-2.044677495956421,-0.2441406100988388,0.7324218153953552,60.0,1244.0,1.0
22043.1398269,90386.5234375,90484.421875,91093.5546875,90669.3203125,90611.296875,90692.2109375,90878.9765625,90992.078125,0.52685546875,0.777587890625,0.34716796875,-1.9836424589157104,-0.1525878757238388,0.7324218153953552,60.0,1245.0,1.0
22043.1435619,88517.6484375,88615.375,89224.1484375,88799.8203125,88742.1484375,88822.2578125,89009.390625,89122.0390625,0.52587890625,0.77783203125,0.344970703125,-2.044677495956421,-0.2136230319738388,0.7019042372703552,60.0,1246.0,1.0
22043.1528918,89470.546875,89568.6328125,90177.578125,89753.2578125,89695.5859375,89775.6953125,89962.734375,90075.4765625,0.528076171875,0.777587890625,0.34521484375,-2.014159917831421,-0.2746581733226776,0.7324218153953552,60.0,1247.0,1.0
22043.1528983,91459.5,91557.6640625,92167.2421875,91742.828125,91684.625,91765.359375,91952.3125,92065.5,0.52880859375,0.779052734375,0.346923828125,-2.044677495956421,-0.2746581733226776,0.7934569716453552,60.0,1248.0,1.0
22043.1548164,90978.9375,91076.75,91686.3203125,91262.0859375,91203.8828125,91284.4375,91471.390625,91584.3125,0.529052734375,0.778076171875,0.345458984375,-2.014159917831421,-0.3051757514476776,0.7019042372703552,60.0,1249.0,1.0
22043.1685593,88889.765625,88987.5703125,89596.5234375,89172.734375,89114.9765625,89195.1796875,89382.0390625,89494.6015625,0.5283203125,0.779296875,0.34521484375,-1.9226073026657104,-0.2136230319738388,0.6713866591453552,60.0,1250.0,1.0
22043.1716408,89336.7109375,89434.7890625,90043.46875,89619.6796875,89561.8359375,89642.03125,89828.890625,89941.546875,0.527099609375,0.7783203125,0.343505859375,-1.9836424589157104,-0.2441406100988388,0.7019042372703552,60.0,1251.0,1.0
22043.1716464,91454.4921875,91552.6640625,92162.328125,91738.1796875,91679.8828125,91760.53125,91947.6640625,92060.4921875,0.527099609375,0.777587890625,0.343994140625,-1.9531248807907104,-0.3051757514476776,0.7324218153953552,60.0,1252.0,1.0
22043.1735635,91504.734375,91603.0859375,92212.390625,91788.4296875,91730.21875,91811.1328125,91998.0859375,92110.5625,0.526611328125,0.77783203125,0.3466796875,-1.9836424589157104,-0.2136230319738388,0.7934569716453552,60.0,1253.0,1.0
22043.176069,89353.15625,89451.0625,90059.921875,89636.1328125,89578.015625,89658.125,89845.34375,89957.640625,0.528076171875,0.778076171875,0.34619140625,-2.014159917831421,-0.1831054538488388,0.7934569716453552,60.0,1254.0,1.0
22043.185397,89261.515625,89358.7890625,89967.8359375,89544.1328125,89485.8359375,89566.21875,89752.984375,89865.90625,0.52880859375,0.7783203125,0.345947265625,-1.9531248807907104,-0.1831054538488388,0.6713866591453552,60.0,1255.0,1.0
22043.1854045,91378.5859375,91476.3984375,92085.703125,91662.09375,91603.53125,91684.5390625,91871.3046875,91984.2265625,0.5283203125,0.77783203125,0.343505859375,-1.8920897245407104,-0.1220703050494194,0.7324218153953552,60.0,1256.0,1.0
22043.187339,91943.4609375,92041.359375,92651.296875,92227.234375,92168.9453125,92249.5859375,92436.5390625,92549.546875,0.529052734375,0.779541015625,0.345458984375,-1.9226073026657104,-0.2136230319738388,0.7019042372703552,60.0,1257.0,1.0
22043.1910618,89898.8125,89996.265625,90605.3046875,90181.78125,90123.578125,90203.6875,90390.8203125,90503.5625,0.52880859375,0.777099609375,0.3466796875,-1.9836424589157104,-0.2441406100988388,0.7629393935203552,60.0,1258.0,1.0
22043.1978906,89267.953125,89365.140625,89973.734375,89550.3046875,89492.2734375,89572.3828125,89759.78125,89872.34375,0.529296875,0.778564453125,0.345947265625,-2.044677495956421,-0.2441406100988388,0.6408690810203552,60.0,1259.0,1.0
22043.1978974,91247.515625,91345.5078125,91954.7265625,91530.7578125,91472.4609375,91553.1953125,91740.328125,91853.3359375,0.530029296875,0.777587890625,0.345947265625,-2.014159917831421,-0.2441406100988388,0.5493163466453552,60.0,1260.0,1.0
22043.2060623,92282.3125,92380.8359375,92990.234375,92566.265625,92507.8828125,92588.890625,92775.9296875,92889.0234375,0.530029296875,0.77783203125,0.345947265625,-2.075195074081421,-0.2746581733226776,0.6713866591453552,60.0,1261.0,1.0
22043.2091407,90498.015625,90596.2734375,91204.8671875,90781.2578125,90723.4140625,90803.7890625,90990.6484375,91103.65625,0.53076171875,0.780517578125,0.344970703125,-2.136230230331421,-0.3356933295726776,0.6713866591453552,60.0,1262.0,1.0
22043.2091456,89361.828125,89459.8203125,90068.0546875,89644.4453125,89586.78125,89666.7109375,89853.65625,89966.578125,0.530517578125,0.779296875,0.34716796875,-2.014159917831421,-0.2746581733226776,0.7934569716453552,60.0,1263.0,1.0
22043.2123373,91076.75,91174.9140625,91784.1328125,91359.984375,91301.875,91382.515625,91569.6484375,91682.4765625,0.52978515625,0.778076171875,0.34375,-2.014159917831421,-0.2136230319738388,0.8239745497703552,60.0,1264.0,1.0
22043.2236073,92522.3671875,92620.984375,93230.6484375,92806.328125,92748.296875,92829.3046875,93016.1640625,93129.265625,0.52783203125,0.779296875,0.34375,-1.9836424589157104,-0.2136230319738388,0.8850097060203552,60.0,1265.0,1.0
22043.2494301,91123.953125,91222.03125,91831.609375,91407.5546875,91349.6171875,91430.171875,91616.5859375,91729.59375,0.529052734375,0.780517578125,0.3447265625,-1.9226073026657104,-0.2136230319738388,0.8850097060203552,60.0,1266.0,1.0
22043.2494377,89550.9296875,89648.109375,90257.5078125,89833.453125,89775.875,89856.1640625,90042.6640625,90155.2265625,0.5283203125,0.780029296875,0.34814453125,-1.9836424589157104,-0.2441406100988388,0.7934569716453552,60.0,1267.0,1.0
22043.2510612,90889.7109375,90987.515625,91596.828125,91172.6796875,91114.65625,91195.4765625,91382.1640625,91494.90625,0.527099609375,0.778076171875,0.346435546875,-1.9836424589157104,-0.2441406100988388,0.7019042372703552,60.0,1268.0,1.0
22043.2535695,92672.2109375,92770.7421875,93380.5859375,92955.8125,92897.5234375,92978.96875,93165.7421875,93278.75,0.5283203125,0.77734375,0.345458984375,-2.014159917831421,-0.2441406100988388,0.5798339247703552,60.0,1269.0,1.0
22043.2560755,91749.359375,91847.2578125,92456.921875,92032.2421875,91974.2109375,92055.578125,92242.078125,92355.1796875,0.52783203125,0.777587890625,0.34912109375,-2.014159917831421,-0.2136230319738388,0.7934569716453552,60.0,1270.0,1.0
22043.2585652,89837.921875,89935.0234375,90543.96875,90120.09375,90062.2421875,90142.9765625,90329.5703125,90442.5859375,0.527099609375,0.778076171875,0.34716796875,-2.044677495956421,-0.2136230319738388,0.7324218153953552,60.0,1271.0,1.0
22043.2610606,90717.6015625,90814.9609375,91423.9140625,91000.484375,90942.28125,91023.015625,91209.6953125,91322.6171875,0.5283203125,0.77734375,0.34521484375,-1.9226073026657104,-0.1831054538488388,0.6103515028953552,60.0,1272.0,1.0
22043.2635604,92731.4921875,92829.8359375,93439.4140625,93015.0,92956.796875,93038.3359375,93224.9296875,93338.03125,0.52978515625,0.775634765625,0.344482421875,-2.014159917831421,-0.2746581733226776,0.7019042372703552,60.0,1273.0,1.0
22043.2660686,92331.484375,92429.5625,93039.140625,92614.7265625,92556.7890625,92638.421875,92824.7421875,92937.75,0.528564453125,0.77880859375,0.343994140625,-1.9226073026657104,-0.2441406100988388,0.8544921278953552,60.0,1274.0,1.0
22043.2685693,90221.390625,90318.7578125,90927.6171875,90503.9140625,90445.890625,90526.625,90713.3046875,90826.5,0.52978515625,0.779052734375,0.345458984375,-1.9531248807907104,-0.1220703050494194,0.8239745497703552,60.0,1275.0,1.0
22043.2710567,90586.2578125,90683.8046875,91292.6640625,90868.6953125,90810.7578125,90891.671875,91078.53125,91191.1875,0.52685546875,0.779052734375,0.3466796875,-1.9836424589157104,-0.1525878757238388,0.7629393935203552,60.0,1276.0,1.0
22043.2741384,92710.9296875,92809.3671875,93418.5859375,92994.4375,92935.96875,93017.4140625,93204.1875,93317.375,0.52783203125,0.778076171875,0.344482421875,-2.014159917831421,-0.1831054538488388,0.8239745497703552,60.0,1277.0,1.0
22043.274144,92839.671875,92937.9296875,93547.6015625,93123.6328125,93064.625,93146.515625,93332.9296875,93446.390625,0.52783203125,0.779052734375,0.344970703125,-1.9836424589157104,-0.2136230319738388,0.7019042372703552,60.0,1278.0,1.0
22043.276062,90694.7109375,90792.25,91401.4765625,90977.6875,90919.2109375,91000.2109375,91186.984375,91300.0,0.528564453125,0.77880859375,0.343505859375,-1.9836424589157104,-0.2441406100988388,0.6408690810203552,60.0,1279.0,1.0
22043.2798077,90519.0234375,90616.65625,91225.6953125,90801.8203125,90743.796875,90824.4375,91010.8515625,91124.3984375,0.528076171875,0.778564453125,0.346435546875,-2.014159917831421,-0.2136230319738388,0.7019042372703552,60.0,1280.0,1.0
22043.2891354,92620.4453125,92718.9765625,93328.640625,92904.4921875,92845.84375,92927.3828125,93113.8828125,93227.5234375,0.5302734375,0.779541015625,0.345947265625,-2.044677495956421,-0.1831054538488388,0.7324218153953552,60.0,1281.0,1.0
22043.2891411,93258.1875,93357.1640625,93966.6484375,93542.234375,93483.8515625,93565.390625,93752.25,93865.53125,0.52978515625,0.77734375,0.345458984375,-2.014159917831421,-0.1220703050494194,0.6408690810203552,60.0,1282.0,1.0
22043.2978897,91245.6328125,91343.625,91952.6640625,91528.6953125,91470.5859375,91551.6796875,91738.4453125,91851.4609375,0.528564453125,0.780029296875,0.345703125,-2.014159917831421,-0.2136230319738388,0.6408690810203552,60.0,1283.0,1.0
22043.2978962,90534.8515625,90632.5703125,91241.5234375,90817.734375,90759.6171875,90840.4453125,91027.5703125,91140.2265625,0.5283203125,0.780029296875,0.344482421875,-1.9836424589157104,-0.2136230319738388,0.6103515028953552,60.0,1284.0,1.0
22043.3041412,92480.6171875,92578.515625,93188.359375,92764.3046875,92705.5625,92786.8359375,92973.78125,93086.796875,0.528076171875,0.777099609375,0.3427734375,-1.8920897245407104,-0.2136230319738388,0.7019042372703552,60.0,1285.0,1.0
22043.3041489,93582.1953125,93680.8125,94290.75,93866.421875,93807.7734375,93889.7578125,94076.0859375,94189.2734375,0.52783203125,0.77978515625,0.345947265625,-1.9531248807907104,-0.3051757514476776,0.5493163466453552,60.0,1286.0,1.0
22043.3103894,91849.2265625,91946.9453125,92556.703125,92132.2890625,92074.3515625,92155.6171875,92342.03125,92455.3125,0.52685546875,0.77880859375,0.344970703125,-2.044677495956421,-0.2746581733226776,0.7324218153953552,60.0,1287.0,1.0
22043.3103948,90639.7265625,90737.265625,91346.578125,90922.34375,90864.765625,90945.5859375,91132.359375,91245.0078125,0.527587890625,0.77880859375,0.345458984375,-2.014159917831421,-0.2136230319738388,0.7019042372703552,60.0,1288.0,1.0
22043.316756,92301.53125,92399.7890625,93009.546875,92585.0390625,92526.9296875,92608.0234375,92794.96875,92907.625,0.52783203125,0.779296875,0.345458984375,-1.9531248807907104,-0.2441406100988388,0.6408690810203552,60.0,1289.0,1.0
22043.3254055,93805.984375,93904.6015625,94514.265625,94090.03125,94031.6484375,94113.09375,94300.046875,94412.96875,0.5283203125,0.77978515625,0.3447265625,-2.014159917831421,-0.2136230319738388,0.7019042372703552,60.0,1290.0,1.0
22043.3254125,92474.5390625,92572.5234375,93181.921875,92758.046875,92699.75,92781.109375,92967.9765625,93080.890625,0.5283203125,0.778076171875,0.344970703125,-1.8615721464157104,-0.1525878757238388,0.7019042372703552,60.0,1291.0,1.0
22043.3416373,90840.3515625,90937.71875,91546.671875,91122.7890625,91064.9453125,91145.9453125,91332.71875,91445.640625,0.526123046875,0.779052734375,0.344482421875,-1.9531248807907104,-0.2136230319738388,0.7629393935203552,60.0,1292.0,1.0
22043.341642,92111.71875,92209.9765625,92818.9296875,92395.0546875,92336.9375,92417.765625,92604.625,92717.8984375,0.52783203125,0.77783203125,0.342041015625,-1.9531248807907104,-0.3051757514476776,0.7934569716453552,60.0,1293.0,1.0
22043.3447438,93933.8359375,94032.5390625,94642.4765625,94218.0625,94159.5859375,94241.21875,94427.8125,94541.265625,0.52880859375,0.776611328125,0.34375,-1.9836424589157104,-0.2746581733226776,0.7934569716453552,60.0,1294.0,1.0
22043.3447489,93089.5625,93188.09375,93798.1171875,93373.609375,93315.2265625,93396.9453125,93583.453125,93696.7265625,0.530029296875,0.77685546875,0.343994140625,-1.9531248807907104,-0.3051757514476776,0.7629393935203552,60.0,1295.0,1.0
22043.3447512,91137.546875,91235.0,91844.484375,91420.3359375,91362.3984375,91443.5859375,91630.0859375,91742.828125,0.529296875,0.7802734375,0.34521484375,-1.9836424589157104,-0.1831054538488388,0.6408690810203552,60.0,1296.0,1.0
22043.3478873,91938.71875,92036.6171875,92645.9296875,92221.78125,92163.84375,92244.7578125,92431.7109375,92544.1875,0.52978515625,0.779052734375,0.3447265625,-1.9531248807907104,-0.1831054538488388,0.6408690810203552,60.0,1297.0,1.0
22043.3478928,93979.078125,94077.515625,94687.5390625,94262.8515625,94204.46875,94286.1875,94473.046875,94585.96875,0.529541015625,0.777587890625,0.34375,-1.9531248807907104,-0.1831054538488388,0.6103515028953552,60.0,1298.0,1.0
22043.3610543,93660.515625,93758.953125,94368.9765625,93944.4765625,93886.1796875,93967.5390625,94154.671875,94267.5,0.528564453125,0.7783203125,0.343994140625,-1.9226073026657104,-0.2441406100988388,0.7629393935203552,60.0,1299.0,1.0
22043.3641472,91533.5234375,91631.7890625,92240.9140625,91816.765625,91759.1015625,91839.7421875,92026.6953125,92139.53125,0.528076171875,0.77880859375,0.3427734375,-1.8615721464157104,-0.3051757514476776,0.7629393935203552,60.0,1300.0,1.0
22043.3641518,91815.609375,91913.8671875,92523.171875,92099.203125,92041.1796875,92121.6484375,92308.7734375,92421.875,0.530517578125,0.777587890625,0.34326171875,-1.8920897245407104,-0.2746581733226776,0.6408690810203552,60.0,1301.0,1.0
22043.3660665,93944.4765625,94043.0,94653.203125,94228.609375,94170.046875,94251.5859375,94438.359375,94551.7265625,0.52783203125,0.77685546875,0.345458984375,-1.9531248807907104,-0.2441406100988388,0.6103515028953552,60.0,1302.0,1.0
22043.3803886,94151.2734375,94250.25,94860.1796875,94435.5859375,94377.0234375,94458.8359375,94645.875,94758.703125,0.528076171875,0.779541015625,0.345458984375,-1.8615721464157104,-0.2441406100988388,0.6408690810203552,60.0,1303.0,1.0
22043.3803961,92012.125,92110.2890625,92719.78125,92295.5390625,92237.4296875,92318.0703125,92505.46875,92618.3046875,0.52978515625,0.780517578125,0.347412109375,-1.9226073026657104,-0.2746581733226776,0.7019042372703552,60.0,1304.0,1.0
22043.3828853,91748.375,91846.6328125,92455.9375,92031.7890625,91973.5,92054.3203125,92241.453125,92354.5546875,0.530029296875,0.778564453125,0.343505859375,-1.9226073026657104,-0.3051757514476776,0.7324218153953552,60.0,1305.0,1.0
22043.3828888,93831.8203125,93930.8828125,94541.0859375,94115.9609375,94057.7578125,94139.3828125,94326.421875,94439.5234375,0.52978515625,0.776611328125,0.344970703125,-1.9836424589157104,-0.3051757514476776,0.6713866591453552,60.0,1306.0,1.0
22043.3935522,94546.6328125,94645.6015625,95255.8046875,94831.0390625,94772.5625,94854.546875,95041.40625,95154.5078125,0.52880859375,0.77880859375,0.345703125,-1.9531248807907104,-0.2441406100988388,0.6103515028953552,60.0,1307.0,1.0
22043.3985005,92568.7734375,92667.296875,93276.875,92852.546875,92794.4375,92875.796875,93062.7421875,93175.3046875,0.52880859375,0.778564453125,0.349365234375,-2.105712652206421,-0.1831054538488388,0.6408690810203552,60.0,1308.0,1.0
22043.3985056,91776.890625,91875.328125,92484.640625,92060.40625,92002.2890625,92083.46875,92270.0625,92382.984375,0.5283203125,0.775634765625,0.345703125,-2.044677495956421,-0.1831054538488388,0.6713866591453552,60.0,1309.0,1.0
22043.3985074,93688.0546875,93786.4921875,94396.6953125,93971.8359375,93913.6328125,93995.5234375,94182.03125,94294.953125,0.529052734375,0.778564453125,0.344482421875,-1.9836424589157104,-0.2746581733226776,0.7629393935203552,60.0,1310.0,1.0
22043.4010524,94855.3515625,94954.4140625,95564.796875,95139.671875,95081.375,95163.6328125,95349.953125,95463.234375,0.528564453125,0.77978515625,0.343994140625,-2.075195074081421,-0.2746581733226776,0.8239745497703552,60.0,1311.0,1.0
22043.4073353,93173.4296875,93272.1328125,93881.8046875,93457.1171875,93399.359375,93480.71875,93667.5859375,93780.7734375,0.52783203125,0.777099609375,0.343505859375,-2.014159917831421,-0.3051757514476776,0.7629393935203552,60.0,1312.0,1.0
22043.4110746,91895.8046875,91994.2421875,92603.28125,92179.40625,92121.6484375,92202.3828125,92389.421875,92502.25,0.529541015625,0.777587890625,0.3466796875,-1.9836424589157104,-0.2746581733226776,0.6408690810203552,60.0,1313.0,1.0
22043.4148119,93505.7578125,93604.28125,94213.859375,93789.625,93731.5078125,93813.2265625,94000.0859375,94112.921875,0.5283203125,0.7783203125,0.344482421875,-1.9836424589157104,-0.2746581733226776,0.6713866591453552,60.0,1314.0,1.0
22043.4291389,95061.171875,95160.140625,95770.8828125,95345.484375,95287.28125,95369.4453125,95556.3046875,95669.5859375,0.527587890625,0.777099609375,0.3447265625,-1.9531248807907104,-0.3051757514476776,0.6713866591453552,60.0,1315.0,1.0
22043.4291462,93798.296875,93896.8203125,94507.3828125,94082.34375,94024.046875,94105.8515625,94292.4453125,94405.9921875,0.529052734375,0.778076171875,0.345947265625,-1.9836424589157104,-0.3967284858226776,0.7019042372703552,60.0,1316.0,1.0
22043.4316385,92106.8046875,92205.0625,92814.8203125,92390.40625,92332.109375,92413.3828125,92600.421875,92713.1640625,0.53125,0.7783203125,0.344482421875,-2.014159917831421,-0.2441406100988388,0.7019042372703552,60.0,1317.0,1.0
