Time,FZ,C3,CZ,C4,PZ,PO7,OZ,PO8,AccX,AccY,AccZ,Gyro1,Gyro2,Gyro3,Battery,Counter,Validation
1038.8391115,-69224.875,69059.921875,-231925.203125,-232160.34375,-69551.4765625,-237943.890625,-225504.53125,-331656.71875,0.0673828125,1.002197265625,0.102783203125,-1.9531248807907104,-0.1831054538488388,0.6713866591453552,66.66667175292969,65089.0,1.0
1038.8391273,-85493.1953125,58517.31640625,-233483.46875,-230714.890625,-82797.484375,-237427.125,-225240.859375,-330569.0,0.06689453125,1.002685546875,0.1044921875,-2.014159917831421,-0.1831054538488388,0.7019042372703552,66.66667175292969,65090.0,1.0
1038.841614,-98293.6796875,48498.7265625,-234467.671875,-229257.109375,-98137.21875,-237689.09375,-225347.265625,-329727.0625,0.0673828125,1.004150390625,0.102783203125,-1.9531248807907104,-0.2136230319738388,0.6713866591453552,66.66667175292969,65091.0,1.0
1038.8416188,-83103.078125,58016.1015625,-233003.453125,-230565.59375,-86337.015625,-238274.96875,-225654.1875,-330757.46875,0.067626953125,1.003662109375,0.103515625,-1.9836424589157104,-0.3051757514476776,0.6713866591453552,66.66667175292969,65092.0,1.0
1038.8447709,-68733.140625,69109.0078125,-231880.5,-232155.59375,-69650.2734375,-238068.703125,-225568.453125,-331711.09375,0.06689453125,1.003662109375,0.106689453125,-1.9226073026657104,-0.1831054538488388,0.5798339247703552,66.66667175292969,65093.0,1.0
1038.8591685,-81537.5546875,61000.7734375,-233157.578125,-231099.078125,-79093.3515625,-237498.5625,-225285.828125,-330854.65625,0.068115234375,1.0029296875,0.10302734375,-1.9836424589157104,-0.1525878757238388,0.6713866591453552,66.66667175292969,65094.0,1.0
1038.859175,-98040.03125,48631.49609375,-234500.5625,-229340.078125,-97239.65625,-237604.15625,-225311.671875,-329770.21875,0.06884765625,1.00390625,0.10205078125,-1.9836424589157104,-0.1831054538488388,0.7019042372703552,66.66667175292969,65095.0,1.0
1038.8847166,-87197.6484375,55140.86328125,-233365.8125,-230213.765625,-90109.8984375,-238223.734375,-225631.03125,-330534.84375,0.068603515625,1.00146484375,0.1064453125,-1.9836424589157104,-0.2746581733226776,0.5798339247703552,66.66667175292969,65096.0,1.0
1038.8847266,-69550.9453125,68363.7109375,-231909.28125,-232065.296875,-71193.9765625,-238178.046875,-225629.875,-331707.6875,0.0693359375,1.002685546875,0.10302734375,-1.8310545682907104,-0.1525878757238388,0.6713866591453552,66.66667175292969,65097.0,1.0
1038.8847293,-77946.171875,63712.7578125,-232840.015625,-231459.125,-75915.828125,-237588.234375,-225343.859375,-331133.59375,0.067626953125,1.002197265625,0.104248046875,-2.044677495956421,-0.1831054538488388,0.6408690810203552,66.66667175292969,65098.0,1.0
1038.8903848,-96884.7109375,50051.90625,-234453.53125,-229509.953125,-95432.2109375,-237533.25,-225285.65625,-329875.03125,0.069580078125,1.003173828125,0.1025390625,-1.9531248807907104,-0.2746581733226776,0.7019042372703552,66.66667175292969,65099.0,1.0
1038.8903911,-90487.109375,53110.25,-233709.765625,-229896.375,-92997.4765625,-238148.375,-225596.4375,-330326.78125,0.0693359375,1.002685546875,0.102294921875,-1.9836424589157104,-0.2746581733226776,0.6713866591453552,66.66667175292969,65100.0,1.0
1038.8922772,-70706.2578125,67264.984375,-232017.28125,-231895.0625,-72944.65625,-238281.046875,-225685.578125,-331648.59375,0.069091796875,1.00390625,0.102783203125,-1.8920897245407104,-0.2136230319738388,0.6408690810203552,66.66667175292969,65101.0,1.0
1038.8947771,-74623.4453125,65753.3828125,-232554.625,-231767.84375,-72939.2890625,-237701.0625,-225406.171875,-331383.9375,0.06884765625,1.002685546875,0.103515625,-1.9531248807907104,-0.2136230319738388,0.6103515028953552,66.66667175292969,65102.0,1.0
1038.897261,-94881.546875,51464.984375,-234328.28125,-229759.578125,-92779.5,-237485.859375,-225272.25,-330038.0,0.06787109375,1.001708984375,0.104248046875,-1.9836424589157104,-0.2136230319738388,0.6103515028953552,66.66667175292969,65103.0,1.0
1038.8996291,-93493.328125,50937.5703125,-234016.875,-229633.96875,-95447.5859375,-238060.484375,-225555.9375,-330149.9375,0.0693359375,1.000244140625,0.099609375,-2.014159917831421,-0.1831054538488388,0.5493163466453552,66.66667175292969,65104.0,1.0
1038.9060484,-72805.5390625,65254.9375,-232189.390625,-231646.0625,-75654.7578125,-238356.515625,-225729.46875,-331533.4375,0.06884765625,1.000732421875,0.10302734375,-1.9531248807907104,-0.2746581733226776,0.6103515028953552,66.66667175292969,65105.0,1.0
1038.9085255,-71736.9453125,67327.125,-232288.015625,-232021.578125,-70616.9453125,-237828.921875,-225479.40625,-331606.5625,0.06884765625,1.002685546875,0.104736328125,-1.9836424589157104,-0.2746581733226776,0.6713866591453552,66.66667175292969,65106.0,1.0
1038.9110424,-92029.0234375,53309.8984375,-234113.609375,-230088.6875,-89418.3359375,-237474.15625,-225282.53125,-330263.59375,0.07080078125,1.001708984375,0.10107421875,-1.9531248807907104,-0.2746581733226776,0.6103515028953552,66.66667175292969,65107.0,1.0
1038.9135303,-96160.0703125,49059.578125,-234276.875,-229451.3125,-97379.9375,-237968.125,-225516.859375,-330021.90625,0.070068359375,1.001708984375,0.104248046875,-2.014159917831421,-0.3356933295726776,0.7019042372703552,66.66667175292969,65108.0,1.0
1038.9160255,-76306.0859375,62727.04296875,-232460.75,-231335.921875,-79437.7421875,-238394.6875,-225752.09375,-331365.96875,0.070068359375,1.0029296875,0.104248046875,-1.9836424589157104,-0.3356933295726776,0.7629393935203552,66.66667175292969,65109.0,1.0
1038.9191054,-70140.7578125,68511.3203125,-232121.09375,-232175.09375,-69865.65625,-237931.65625,-225537.96875,-331759.90625,0.0673828125,1.001953125,0.1064453125,-2.075195074081421,-0.3356933295726776,0.7629393935203552,66.66667175292969,65110.0,1.0
1038.9191113,-88751.359375,56063.6328125,-233854.59375,-230446.3125,-86179.5703125,-237484.171875,-225298.984375,-330513.375,0.067138671875,1.004150390625,0.104736328125,-1.9531248807907104,-0.1525878757238388,0.7934569716453552,66.66667175292969,65111.0,1.0
1038.9229201,-97577.9765625,48650.8984375,-234460.515625,-229353.046875,-98125.234375,-237871.5625,-225474.75,-329945.1875,0.067138671875,1.0048828125,0.1025390625,-2.044677495956421,-0.1525878757238388,0.7019042372703552,66.66667175292969,65112.0,1.0
1038.9229276,-79520.5390625,60417.75,-232776.984375,-230988.484375,-82822.4296875,-238402.5625,-225758.984375,-331164.71875,0.0673828125,1.00390625,0.099609375,-2.044677495956421,-0.2136230319738388,0.7629393935203552,66.66667175292969,65113.0,1.0
1038.9335209,-68883.875,69094.34375,-232011.46875,-232253.328125,-69155.046875,-238064.328125,-225605.203125,-331869.25,0.0673828125,1.00244140625,0.1005859375,-2.075195074081421,-0.2441406100988388,0.7324218153953552,66.66667175292969,65114.0,1.0
1038.936618,-85021.125,58509.62890625,-233551.0625,-230839.171875,-82275.1640625,-237534.859375,-225337.25,-330799.40625,0.0693359375,1.0029296875,0.103515625,-1.9836424589157104,-0.2136230319738388,0.7324218153953552,66.66667175292969,65115.0,1.0
1038.9366233,-98301.28125,48136.18359375,-234568.15625,-229351.625,-98081.515625,-237780.8125,-225435.140625,-329933.125,0.067138671875,1.003173828125,0.10107421875,-1.9836424589157104,-0.2441406100988388,0.6408690810203552,66.66667175292969,65116.0,1.0
1038.9422672,-83642.1953125,57535.359375,-233124.953125,-230626.296875,-86890.0859375,-238373.59375,-225745.125,-330943.25,0.06787109375,1.0009765625,0.10400390625,-2.044677495956421,-0.3051757514476776,0.5798339247703552,66.66667175292969,65117.0,1.0
1038.9466045,-68905.3359375,69016.6484375,-231966.328125,-232241.4375,-69992.7890625,-238173.9375,-225665.640625,-331917.25,0.06689453125,1.00048828125,0.10546875,-2.044677495956421,-0.2746581733226776,0.6408690810203552,66.66667175292969,65118.0,1.0
1038.9466145,-81262.453125,61436.27734375,-233220.265625,-231222.546875,-78867.1484375,-237603.4375,-225383.015625,-331084.875,0.06640625,1.001708984375,0.10302734375,-2.014159917831421,-0.1831054538488388,0.7324218153953552,66.66667175292969,65119.0,1.0
1038.9572768,-97966.71875,49029.89453125,-234595.0625,-229440.578125,-97079.171875,-237695.796875,-225400.015625,-329980.4375,0.06787109375,1.003173828125,0.10205078125,-2.105712652206421,-0.1525878757238388,0.7019042372703552,66.66667175292969,65120.0,1.0
1038.9603515,-87181.8203125,55235.453125,-233485.171875,-230271.078125,-90185.8984375,-238314.125,-225716.0625,-330716.78125,0.0693359375,1.002197265625,0.099853515625,-1.9836424589157104,-0.2441406100988388,0.7934569716453552,66.66667175292969,65121.0,1.0
1038.9603586,-69303.109375,68425.3984375,-232002.171875,-232143.34375,-71017.84375,-238291.515625,-225725.625,-331908.84375,0.069580078125,1.00146484375,0.10107421875,-1.9531248807907104,-0.3051757514476776,0.6713866591453552,66.66667175292969,65122.0,1.0
1038.9791258,-77564.046875,63758.62109375,-232903.046875,-231577.578125,-75398.0703125,-237701.0625,-225439.890625,-331360.5,0.069580078125,1.004150390625,0.10009765625,-1.8920897245407104,-0.2136230319738388,0.7629393935203552,66.66667175292969,65123.0,1.0
1038.9791382,-96772.8671875,49859.6796875,-234540.703125,-229615.09375,-95168.4609375,-237624.265625,-225373.453125,-330088.34375,0.06884765625,1.00341796875,0.104248046875,-1.9226073026657104,-0.2441406100988388,0.7324218153953552,66.66667175292969,65124.0,1.0
1038.9810226,-90974.015625,52595.98046875,-233833.40625,-229958.25,-93460.3359375,-238240.734375,-225683.96875,-330512.9375,0.0693359375,1.003662109375,0.099365234375,-2.014159917831421,-0.3356933295726776,0.6103515028953552,66.66667175292969,65125.0,1.0
1038.9835369,-71045.3828125,66976.3828125,-232113.84375,-231968.375,-73404.828125,-238389.59375,-225782.3125,-331847.6875,0.0693359375,1.00244140625,0.100341796875,-1.9226073026657104,-0.2441406100988388,0.6408690810203552,66.66667175292969,65126.0,1.0
1038.9866166,-74386.34375,65921.2890625,-232604.515625,-231892.5625,-72837.0078125,-237814.53125,-225506.671875,-331616.65625,0.0693359375,1.00244140625,0.10205078125,-1.9836424589157104,-0.2441406100988388,0.6103515028953552,66.66667175292969,65127.0,1.0
1038.9866248,-94807.96875,51503.4296875,-234405.171875,-229875.71875,-92745.171875,-237579.828125,-225362.453125,-330258.3125,0.069580078125,1.002197265625,0.10595703125,-1.9531248807907104,-0.2441406100988388,0.6103515028953552,66.66667175292969,65128.0,1.0
1038.9897802,-94302.28125,50573.7734375,-234140.703125,-229699.328125,-96127.6171875,-238149.09375,-225640.15625,-330335.65625,0.0673828125,1.004150390625,0.10498046875,-1.9531248807907104,-0.2746581733226776,0.7019042372703552,66.66667175292969,65129.0,1.0
1038.9991027,-73741.8984375,65073.62109375,-232309.375,-231711.78125,-76515.390625,-238457.0,-225817.8125,-331722.625,0.068359375,1.00390625,0.105712890625,-1.9531248807907104,-0.1831054538488388,0.6408690810203552,66.66667175292969,65130.0,1.0
1038.9991098,-72038.6015625,67716.1328125,-232376.4375,-232122.96875,-71145.515625,-237925.296875,-225567.203125,-331819.1875,0.068603515625,1.001953125,0.101806640625,-1.9531248807907104,-0.1220703050494194,0.7019042372703552,66.66667175292969,65131.0,1.0
1039.001033,-92078.4609375,53997.52734375,-234191.671875,-230199.640625,-89611.3671875,-237566.0625,-225367.109375,-330479.59375,0.068603515625,1.0009765625,0.10302734375,-1.9531248807907104,-0.2441406100988388,0.7019042372703552,66.66667175292969,65132.0,1.0
1039.0047434,-96383.5859375,49596.5546875,-234385.40625,-229529.265625,-97569.9296875,-238056.8125,-225601.359375,-330215.125,0.068359375,1.001220703125,0.102783203125,-2.014159917831421,-0.2746581733226776,0.6408690810203552,66.66667175292969,65133.0,1.0
1039.0166095,-76466.125,63011.08984375,-232577.15625,-231400.828125,-79619.0625,-238492.3125,-225840.609375,-331554.15625,0.068115234375,1.0009765625,0.10205078125,-2.014159917831421,-0.3051757514476776,0.7019042372703552,66.66667175292969,65134.0,1.0
1039.0166184,-70017.3828125,68878.0625,-232205.125,-232277.734375,-69683.890625,-238045.015625,-225631.9375,-331976.25,0.067626953125,1.001953125,0.10546875,-1.9836424589157104,-0.2136230319738388,0.8239745497703552,66.66667175292969,65135.0,1.0
1039.0185151,-88576.3046875,56387.10546875,-233926.484375,-230572.46875,-85870.6640625,-237587.96875,-225392.5,-330743.34375,0.0673828125,1.0029296875,0.104248046875,-1.9226073026657104,-0.1525878757238388,0.6713866591453552,66.66667175292969,65136.0,1.0
1039.0222713,-97720.1328125,48717.86328125,-234566.109375,-229444.15625,-98214.5546875,-237963.75,-225562.734375,-330149.125,0.0693359375,1.00390625,0.102783203125,-1.8310545682907104,-0.2441406100988388,0.5493163466453552,66.66667175292969,65137.0,1.0
1039.0266037,-79858.140625,60324.140625,-232897.859375,-231050.984375,-83224.4921875,-238495.09375,-225845.34375,-331350.9375,0.068603515625,1.004150390625,0.102294921875,-1.9531248807907104,-0.2746581733226776,0.6408690810203552,66.66667175292969,65138.0,1.0
1039.026612,-68905.15625,69236.6796875,-232099.09375,-232344.421875,-69241.6875,-238165.453125,-225695.5,-332076.40625,0.068115234375,1.00341796875,0.104248046875,-1.9836424589157104,-0.2746581733226776,0.7324218153953552,66.66667175292969,65139.0,1.0
1039.0403718,-84774.8046875,58851.7890625,-233616.59375,-230957.375,-82053.6171875,-237633.390625,-225427.359375,-331022.8125,0.068359375,1.0029296875,0.10302734375,-2.014159917831421,-0.3051757514476776,0.7019042372703552,66.66667175292969,65140.0,1.0
1039.0403819,-98288.9375,48321.1640625,-234664.359375,-229444.15625,-98044.3203125,-237868.703125,-225521.609375,-330136.8125,0.068115234375,1.001708984375,0.105712890625,-2.075195074081421,-0.2136230319738388,0.6713866591453552,66.66667175292969,65141.0,1.0
1039.046022,-83851.3203125,57437.90625,-233249.578125,-230686.640625,-87157.859375,-238463.796875,-225832.109375,-331127.34375,0.068359375,0.99951171875,0.100830078125,-2.105712652206421,-0.2441406100988388,0.6103515028953552,66.66667175292969,65142.0,1.0
1039.0485213,-68892.375,69030.328125,-232066.8125,-232326.453125,-70022.03125,-238279.625,-225760.140625,-332121.8125,0.069091796875,1.003173828125,0.10302734375,-2.014159917831421,-0.3051757514476776,0.5798339247703552,66.66667175292969,65143.0,1.0
1039.0510317,-81070.8515625,61543.83203125,-233291.0625,-231341.640625,-78536.96875,-237707.78125,-225477.34375,-331310.28125,0.069091796875,1.00244140625,0.101806640625,-2.014159917831421,-0.1525878757238388,0.7019042372703552,66.66667175292969,65144.0,1.0
1039.0535159,-97997.5625,48959.98046875,-234686.71875,-229537.3125,-96973.8515625,-237783.046875,-225485.921875,-330187.0625,0.068603515625,1.00439453125,0.101806640625,-2.044677495956421,-0.1831054538488388,0.7019042372703552,66.66667175292969,65145.0,1.0
1039.0629346,-87573.6953125,54883.63671875,-233612.84375,-230333.84375,-90517.4140625,-238406.046875,-225806.1875,-330903.65625,0.0673828125,1.003662109375,0.10400390625,-1.9836424589157104,-0.1525878757238388,0.7019042372703552,66.66667175292969,65146.0,1.0
1039.0629469,-69400.7421875,68231.65625,-232101.234375,-232227.125,-71190.7578125,-238398.890625,-225823.625,-332114.46875,0.06787109375,1.0029296875,0.104736328125,-2.075195074081421,-0.2746581733226776,0.7324218153953552,66.66667175292969,65147.0,1.0
1039.0653571,-77267.8359375,63869.75390625,-232963.921875,-231706.328125,-75076.1171875,-237813.0,-225540.828125,-331595.375,0.068115234375,1.003662109375,0.1025390625,-1.9531248807907104,-0.2136230319738388,0.7934569716453552,66.66667175292969,65148.0,1.0
1039.0653649,-96713.0546875,49800.94140625,-234626.71875,-229724.796875,-95013.421875,-237718.5,-225465.640625,-330305.5,0.0693359375,1.003662109375,0.10302734375,-1.9226073026657104,-0.2441406100988388,0.7324218153953552,66.66667175292969,65149.0,1.0
1039.0735348,-91391.7265625,52269.46875,-233953.484375,-230020.375,-93860.7890625,-238325.671875,-225768.71875,-330696.65625,0.0693359375,1.003173828125,0.1005859375,-1.8920897245407104,-0.2441406100988388,0.7324218153953552,66.66667175292969,65150.0,1.0
1039.0797739,-71385.125,66725.4140625,-232228.90625,-232034.1875,-73861.4296875,-238483.296875,-225869.65625,-332036.6875,0.068115234375,1.003173828125,0.102783203125,-2.044677495956421,-0.1525878757238388,0.7324218153953552,66.66667175292969,65151.0,1.0
1039.0829645,-74341.8125,66100.28125,-232693.5625,-231993.234375,-72865.8828125,-237909.203125,-225595.90625,-331829.8125,0.067138671875,1.002685546875,0.102783203125,-1.9531248807907104,-0.2136230319738388,0.6713866591453552,66.66667175292969,65152.0,1.0
1039.082972,-94630.671875,51918.27734375,-234480.984375,-229987.484375,-92442.4375,-237675.234375,-225452.9375,-330477.4375,0.066162109375,1.002685546875,0.10302734375,-1.9531248807907104,-0.2746581733226776,0.6713866591453552,66.66667175292969,65153.0,1.0
1039.0935487,-94158.15625,50770.91796875,-234253.53125,-229776.84375,-95972.3125,-238238.9375,-225731.171875,-330531.625,0.0693359375,1.003662109375,0.100341796875,-1.9531248807907104,-0.3051757514476776,0.6408690810203552,66.66667175292969,65154.0,1.0
1039.0966018,-73530.5390625,65025.96484375,-232432.21875,-231776.96875,-76420.078125,-238550.96875,-225909.359375,-331912.875,0.067138671875,1.0029296875,0.104736328125,-1.9836424589157104,-0.3356933295726776,0.7019042372703552,66.66667175292969,65155.0,1.0
1039.0966097,-71652.6328125,67694.3203125,-232463.515625,-232224.359375,-70670.765625,-238026.328125,-225659.203125,-332033.40625,0.06591796875,1.002197265625,0.10498046875,-2.075195074081421,-0.2441406100988388,0.7019042372703552,66.66667175292969,65156.0,1.0
1039.1047731,-91681.8515625,53901.50390625,-234265.15625,-230315.421875,-89092.1796875,-237660.921875,-225457.234375,-330701.3125,0.066650390625,1.001953125,0.10302734375,-2.105712652206421,-0.3051757514476776,0.7019042372703552,66.66667175292969,65157.0,1.0
1039.1216386,-96505.984375,49141.20703125,-234493.140625,-229606.78125,-97626.078125,-238143.90625,-225687.984375,-330410.21875,0.067626953125,1.001220703125,0.103271484375,-2.075195074081421,-0.2746581733226776,0.6408690810203552,66.66667175292969,65158.0,1.0
1039.1216461,-76899.3046875,62536.25,-232700.09375,-231459.203125,-80081.1171875,-238583.609375,-225928.9375,-331738.71875,0.067626953125,1.002197265625,0.1025390625,-2.044677495956421,-0.2441406100988388,0.5798339247703552,66.66667175292969,65159.0,1.0
1039.1247188,-69999.6796875,68846.1484375,-232293.375,-232369.90625,-69807.8125,-238135.859375,-225720.4375,-332183.25,0.06640625,1.002685546875,0.100830078125,-2.044677495956421,-0.3051757514476776,0.7019042372703552,66.66667175292969,65160.0,1.0
1039.1247248,-88299.140625,56694.3984375,-233994.875,-230685.21875,-85545.671875,-237678.984375,-225479.765625,-330962.125,0.06689453125,1.000732421875,0.10400390625,-2.044677495956421,-0.3356933295726776,0.7324218153953552,66.66667175292969,65161.0,1.0
1039.1247273,-97803.7265625,48780.1796875,-234667.484375,-229524.171875,-98180.671875,-238050.5625,-225648.828125,-330345.125,0.068359375,1.00146484375,0.105712890625,-2.044677495956421,-0.2746581733226776,0.7629393935203552,66.66667175292969,65162.0,1.0
1039.1279288,-80173.2109375,60193.51953125,-233022.9375,-231105.34375,-83509.515625,-238584.765625,-225933.40625,-331532.34375,0.068115234375,1.0009765625,0.101806640625,-2.014159917831421,-0.3051757514476776,0.6713866591453552,66.66667175292969,65163.0,1.0
1039.1279347,-68847.0390625,69353.53125,-232191.90625,-232433.921875,-69231.046875,-238263.890625,-225786.25,-332282.75,0.06982421875,1.00146484375,0.10205078125,-2.044677495956421,-0.2746581733226776,0.7324218153953552,66.66667175292969,65164.0,1.0
1039.1297794,-84464.5625,59183.04296875,-233682.5,-231078.328125,-81664.4296875,-237729.953125,-225517.484375,-331247.78125,0.068115234375,1.003173828125,0.10107421875,-1.9226073026657104,-0.1831054538488388,0.7019042372703552,66.66667175292969,65165.0,1.0
1039.1435126,-98226.984375,48503.82421875,-234760.03125,-229535.078125,-97858.53125,-237953.734375,-225606.53125,-330339.75,0.067626953125,1.001708984375,0.10302734375,-1.9226073026657104,-0.1525878757238388,0.7324218153953552,66.66667175292969,65166.0,1.0
1039.1479271,-83931.96875,57308.0859375,-233373.40625,-230740.5625,-87163.8515625,-238546.671875,-225915.265625,-331307.21875,0.068115234375,1.000244140625,0.10546875,-1.8920897245407104,-0.2441406100988388,0.7934569716453552,66.66667175292969,65167.0,1.0
1039.1479324,-68691.296875,68964.4296875,-232165.4375,-232408.625,-69781.703125,-238378.765625,-225847.765625,-332323.15625,0.06884765625,1.003173828125,0.104248046875,-1.9836424589157104,-0.2441406100988388,0.7019042372703552,66.66667175292969,65168.0,1.0
1039.1566157,-80548.2734375,61606.1484375,-233358.84375,-231463.5,-78035.3984375,-237807.90625,-225568.09375,-331538.0625,0.068115234375,1.00439453125,0.103759765625,-1.9226073026657104,-0.2441406100988388,0.7019042372703552,66.66667175292969,65169.0,1.0
1039.1566239,-97814.0078125,48755.7734375,-234774.953125,-229640.671875,-96735.671875,-237873.265625,-225574.4375,-330399.9375,0.066650390625,1.001953125,0.105224609375,-1.9226073026657104,-0.2136230319738388,0.6103515028953552,66.66667175292969,65170.0,1.0
1039.1703604,-88069.0078125,54421.8515625,-233727.734375,-230386.234375,-90980.1875,-238489.8125,-225890.859375,-331083.25,0.0693359375,1.001953125,0.104736328125,-1.9226073026657104,-0.2136230319738388,0.6408690810203552,66.66667175292969,65171.0,1.0
1039.1703694,-69714.2890625,68028.4296875,-232191.90625,-232295.171875,-71559.0234375,-238492.046875,-225914.015625,-332309.75,0.068603515625,1.001953125,0.10498046875,-2.044677495956421,-0.2746581733226776,0.7324218153953552,66.66667175292969,65172.0,1.0
1039.1777813,-77152.4140625,64015.30859375,-233033.21875,-231811.203125,-75095.0703125,-237902.6875,-225627.8125,-331812.46875,0.0693359375,1.002197265625,0.103271484375,-2.014159917831421,-0.2441406100988388,0.7324218153953552,66.66667175292969,65173.0,1.0
1039.1777892,-96625.4296875,49958.4765625,-234700.5625,-229831.5625,-94941.8984375,-237809.34375,-225553.78125,-330522.25,0.070068359375,1.001708984375,0.102783203125,-1.8920897245407104,-0.1831054538488388,0.6408690810203552,66.66667175292969,65174.0,1.0
1039.1777928,-91804.0703125,52089.04296875,-234070.875,-230087.171875,-94143.671875,-238413.734375,-225856.96875,-330887.65625,0.0712890625,1.00146484375,0.102294921875,-1.9836424589157104,-0.1525878757238388,0.6408690810203552,66.66667175292969,65175.0,1.0
1039.1777957,-71765.375,66574.046875,-232342.015625,-232103.5625,-74169.796875,-238580.203125,-225960.234375,-332231.15625,0.069091796875,1.002197265625,0.09912109375,-1.8920897245407104,-0.2136230319738388,0.7629393935203552,66.66667175292969,65176.0,1.0
1039.1803687,-74211.546875,66269.2578125,-232770.8125,-232105.625,-72838.703125,-238010.0625,-225686.109375,-332052.0625,0.068359375,1.00390625,0.10107421875,-1.9836424589157104,-0.1831054538488388,0.7019042372703552,66.66667175292969,65177.0,1.0
1039.1803771,-94483.15625,52088.41796875,-234560.46875,-230103.703125,-92350.6171875,-237766.328125,-225541.359375,-330700.25,0.069091796875,1.0029296875,0.09765625,-1.9531248807907104,-0.2136230319738388,0.7019042372703552,66.66667175292969,65178.0,1.0
1039.193519,-94526.515625,50623.57421875,-234369.140625,-229845.5,-96268.4296875,-238322.890625,-225814.234375,-330721.53125,0.068115234375,1.002685546875,0.10498046875,-1.8920897245407104,-0.1525878757238388,0.6103515028953552,66.66667175292969,65179.0,1.0
1039.1984477,-73950.6640625,64842.859375,-232547.734375,-231837.578125,-76829.65625,-238639.03125,-225994.03125,-332099.375,0.06689453125,1.001708984375,0.10498046875,-1.9226073026657104,-0.1220703050494194,0.6713866591453552,66.66667175292969,65180.0,1.0
1039.1984559,-71527.109375,67947.25,-232541.75,-232326.453125,-70679.8828125,-238116.359375,-225745.125,-332247.875,0.065185546875,1.00244140625,0.1064453125,-1.9531248807907104,-0.2441406100988388,0.6408690810203552,66.66667175292969,65181.0,1.0
1039.1984591,-91396.5546875,54327.8828125,-234337.40625,-230434.515625,-88861.2421875,-237751.671875,-225543.78125,-330924.9375,0.0673828125,1.00390625,0.10400390625,-1.9531248807907104,-0.2746581733226776,0.5798339247703552,66.66667175292969,65182.0,1.0
1039.2010227,-96529.0546875,49343.17578125,-234605.703125,-229684.296875,-97595.40625,-238227.765625,-225771.765625,-330605.90625,0.069091796875,1.0048828125,0.10302734375,-1.9531248807907104,-0.2746581733226776,0.6713866591453552,66.66667175292969,65183.0,1.0
1039.2047893,-76905.7421875,62480.37109375,-232824.546875,-231519.296875,-80111.609375,-238674.796875,-226016.015625,-331925.5625,0.069091796875,1.004150390625,0.10302734375,-1.8920897245407104,-0.2746581733226776,0.6103515028953552,66.66667175292969,65184.0,1.0
1039.2135331,-69710.8046875,68848.921875,-232380.015625,-232470.3125,-69460.015625,-238242.0625,-225811.109375,-332398.625,0.069091796875,1.003173828125,0.10107421875,-1.8920897245407104,-0.1831054538488388,0.6713866591453552,66.66667175292969,65185.0,1.0
1039.2172724,-87873.921875,56629.7578125,-234061.21875,-230809.484375,-85145.84375,-237773.671875,-225566.84375,-331190.1875,0.06982421875,1.0009765625,0.1015625,-1.8310545682907104,-0.3051757514476776,0.6103515028953552,66.66667175292969,65186.0,1.0
1039.2240078,-97968.328125,48324.02734375,-234769.953125,-229610.71875,-98301.1015625,-238133.078125,-225730.015625,-330545.5625,0.0693359375,1.000732421875,0.10546875,-1.9226073026657104,-0.2136230319738388,0.5493163466453552,66.66667175292969,65187.0,1.0
1039.2240148,-80868.9765625,59678.17578125,-233145.78125,-231162.640625,-84141.890625,-238670.78125,-226015.21875,-331715.28125,0.070068359375,1.001953125,0.102783203125,-2.014159917831421,-0.2136230319738388,0.5798339247703552,66.66667175292969,65188.0,1.0
1039.2297873,-69074.8515625,69282.09375,-232280.765625,-232521.0,-69631.765625,-238352.84375,-225870.296875,-332487.03125,0.069580078125,1.002197265625,0.104248046875,-2.044677495956421,-0.2441406100988388,0.7019042372703552,66.66667175292969,65189.0,1.0
1039.2322713,-84202.15625,59589.57421875,-233747.765625,-231199.296875,-81593.6171875,-237822.390625,-225603.3125,-331473.34375,0.070556640625,1.003662109375,0.103271484375,-1.9836424589157104,-0.2441406100988388,0.6713866591453552,66.66667175292969,65190.0,1.0
1039.2385132,-98315.671875,48730.73828125,-234857.5625,-229630.125,-97927.9140625,-238041.796875,-225690.9375,-330546.09375,0.067626953125,1.0048828125,0.1015625,-2.075195074081421,-0.3967284858226776,0.6408690810203552,66.66667175292969,65191.0,1.0
1039.2429392,-84377.9296875,57270.0,-233495.0,-230796.875,-87604.8984375,-238636.984375,-226002.796875,-331491.5,0.068115234375,1.00341796875,0.103515625,-2.105712652206421,-0.1831054538488388,0.7629393935203552,66.66667175292969,65192.0,1.0
1039.2429452,-68728.578125,69174.8984375,-232244.03125,-232496.234375,-69909.375,-238487.21875,-225945.484375,-332534.15625,0.070068359375,1.0029296875,0.10205078125,-2.014159917831421,-0.2441406100988388,0.6408690810203552,66.66667175292969,65193.0,1.0
1039.2447872,-80177.9453125,62122.47265625,-233406.5,-231595.5625,-77714.875,-237914.75,-225665.8125,-331775.71875,0.0673828125,1.002197265625,0.1025390625,-1.9531248807907104,-0.3967284858226776,0.7019042372703552,66.66667175292969,65194.0,1.0
1039.258524,-97686.3359375,49184.48046875,-234858.8125,-229745.28125,-96559.09375,-237958.109375,-225660.359375,-330613.59375,0.06982421875,1.00341796875,0.1015625,-2.014159917831421,-0.2136230319738388,0.6103515028953552,66.66667175292969,65195.0,1.0
1039.261611,-88135.5234375,54497.04296875,-233859.96875,-230452.21875,-90976.4296875,-238573.328125,-225973.734375,-331270.65625,0.069091796875,1.00390625,0.104248046875,-1.9226073026657104,-0.1525878757238388,0.6103515028953552,66.66667175292969,65196.0,1.0
1039.2616186,-69642.140625,68047.921875,-232318.59375,-232372.046875,-71473.4609375,-238587.453125,-225999.125,-332505.1875,0.06787109375,1.0048828125,0.10302734375,-1.9836424589157104,-0.2136230319738388,0.6713866591453552,66.66667175292969,65197.0,1.0
1039.2635157,-76641.1875,64270.56640625,-233114.9375,-231930.109375,-74658.140625,-238002.640625,-225715.34375,-332036.0625,0.068603515625,1.002197265625,0.101318359375,-1.9836424589157104,-0.3051757514476776,0.6408690810203552,66.66667175292969,65198.0,1.0
1039.2697727,-96253.859375,50141.1328125,-234790.25,-229942.0625,-94557.359375,-237896.0625,-225635.59375,-330736.46875,0.06689453125,1.00146484375,0.10400390625,-1.9226073026657104,-0.2136230319738388,0.6103515028953552,66.66667175292969,65199.0,1.0
1039.276012,-91880.9609375,51952.96484375,-234195.6875,-230151.8125,-94143.3203125,-238499.5625,-225938.78125,-331072.8125,0.068359375,1.004638671875,0.100830078125,-1.8920897245407104,-0.2746581733226776,0.6408690810203552,66.66667175292969,65200.0,1.0
1039.2829363,-71749.4609375,66457.640625,-232452.609375,-232171.78125,-74155.578125,-238675.6875,-226049.1875,-332423.75,0.067138671875,1.004638671875,0.10009765625,-1.9531248807907104,-0.2136230319738388,0.6713866591453552,66.66667175292969,65201.0,1.0
1039.2829431,-73732.328125,66480.4375,-232839.65625,-232216.125,-72395.15625,-238102.953125,-225774.265625,-332271.5625,0.067138671875,1.00244140625,0.100341796875,-1.8920897245407104,-0.2441406100988388,0.7324218153953552,66.66667175292969,65202.0,1.0
1039.2903489,-94042.109375,52322.12890625,-234633.875,-230218.421875,-91838.140625,-237856.375,-225625.578125,-330918.9375,0.067138671875,1.002685546875,0.102294921875,-1.9836424589157104,-0.1831054538488388,0.7629393935203552,66.66667175292969,65203.0,1.0
1039.2903561,-94513.1015625,50537.20703125,-234484.734375,-229917.296875,-96196.546875,-238409.703125,-225897.921875,-330912.59375,0.069580078125,1.0009765625,0.10009765625,-1.9531248807907104,-0.3051757514476776,0.6103515028953552,66.66667175292969,65204.0,1.0
1039.2947886,-73974.796875,64684.7890625,-232664.765625,-231901.953125,-76854.15625,-238741.3125,-226085.3125,-332290.34375,0.06884765625,1.0009765625,0.10302734375,-1.9836424589157104,-0.1831054538488388,0.6713866591453552,66.66667175292969,65205.0,1.0
1039.2972674,-71188.25,67957.4453125,-232620.78125,-232432.765625,-70351.671875,-238227.234375,-225839.265625,-332467.1875,0.06787109375,1.0029296875,0.105712890625,-2.075195074081421,-0.2136230319738388,0.6103515028953552,66.66667175292969,65206.0,1.0
1039.2997716,-90968.8359375,54326.2734375,-234410.265625,-230557.453125,-88477.5078125,-237850.109375,-225634.609375,-331151.9375,0.06640625,1.002685546875,0.10595703125,-2.014159917831421,-0.1831054538488388,0.7019042372703552,66.66667175292969,65207.0,1.0
1039.306037,-96778.5859375,48950.859375,-234714.25,-229764.671875,-97770.9140625,-238317.078125,-225856.515625,-330801.90625,0.0693359375,1.001220703125,0.104248046875,-1.9531248807907104,-0.1831054538488388,0.7019042372703552,66.66667175292969,65208.0,1.0
1039.3104126,-77530.515625,62114.16015625,-232939.703125,-231576.0625,-80668.5234375,-238769.921875,-226102.5625,-332109.65625,0.070556640625,1.00048828125,0.1025390625,-2.044677495956421,-0.2136230319738388,0.7324218153953552,66.66667175292969,65209.0,1.0
1039.310419,-69759.171875,68998.5859375,-232457.171875,-232563.5625,-69703.5625,-238338.09375,-225901.3125,-332608.46875,0.0703125,1.002197265625,0.100830078125,-2.044677495956421,-0.2136230319738388,0.7019042372703552,66.66667175292969,65210.0,1.0
1039.3185173,-87543.828125,57194.2734375,-234125.953125,-230932.0625,-84952.640625,-237871.65625,-225658.21875,-331417.65625,0.068359375,1.001953125,0.10107421875,-2.014159917831421,-0.1831054538488388,0.6408690810203552,66.66667175292969,65211.0,1.0
1039.3250266,-97913.34375,48751.9296875,-234873.484375,-229697.359375,-98204.453125,-238221.859375,-225815.9375,-330746.5625,0.069091796875,1.001708984375,0.103271484375,-2.014159917831421,-0.1525878757238388,0.6408690810203552,66.66667175292969,65212.0,1.0
1039.3250324,-80910.1875,59746.75390625,-233269.34375,-231219.78125,-84065.09375,-238767.609375,-226105.703125,-331900.09375,0.068603515625,1.001953125,0.10498046875,-1.9531248807907104,-0.2136230319738388,0.7019042372703552,66.66667175292969,65213.0,1.0
1039.3297641,-68786.0625,69390.6328125,-232370.984375,-232612.921875,-69257.421875,-238468.890625,-225969.625,-332698.5,0.068115234375,1.002685546875,0.10107421875,-1.9836424589157104,-0.3356933295726776,0.6103515028953552,66.66667175292969,65214.0,1.0
1039.3322772,-83689.140625,59670.12890625,-233814.546875,-231323.3125,-81128.5234375,-237928.15625,-225699.171875,-331703.125,0.069091796875,1.00244140625,0.1005859375,-2.014159917831421,-0.1831054538488388,0.7324218153953552,66.66667175292969,65215.0,1.0
1039.3360199,-98194.5234375,48558.453125,-234956.625,-229718.984375,-97792.640625,-238125.9375,-225774.0,-330748.25,0.072509765625,1.001708984375,0.10205078125,-2.014159917831421,-0.1831054538488388,0.6408690810203552,66.66667175292969,65216.0,1.0
1039.3453591,-84649.1875,56840.3984375,-233615.4375,-230846.234375,-87770.390625,-238728.53125,-226088.703125,-331671.03125,0.0703125,1.00146484375,0.10302734375,-2.044677495956421,-0.1220703050494194,0.6408690810203552,66.66667175292969,65217.0,1.0
1039.3453672,-68701.84375,68894.15625,-232336.015625,-232572.0625,-69863.8671875,-238595.046875,-226041.953125,-332736.21875,0.069091796875,1.00244140625,0.101806640625,-2.044677495956421,-0.2136230319738388,0.6713866591453552,66.66667175292969,65218.0,1.0
1039.3472629,-79817.7265625,62020.37109375,-233481.328125,-231705.25,-77459.2578125,-238016.046875,-225759.15625,-331997.8125,0.06884765625,1.00341796875,0.101806640625,-2.044677495956421,-0.1831054538488388,0.6408690810203552,66.66667175292969,65219.0,1.0
1039.3585237,-97589.8671875,48885.32421875,-234951.359375,-229844.421875,-96470.7578125,-238051.90625,-225748.96875,-330824.875,0.068115234375,1.003173828125,0.1015625,-2.075195074081421,-0.2441406100988388,0.7019042372703552,66.66667175292969,65220.0,1.0
1039.3616035,-88747.15625,53986.70703125,-233978.703125,-230511.671875,-91457.890625,-238667.828125,-226061.53125,-331456.625,0.068359375,1.00146484375,0.102783203125,-2.014159917831421,-0.2746581733226776,0.6713866591453552,66.66667175292969,65221.0,1.0
1039.3616105,-70048.40625,67815.109375,-232412.203125,-232445.1875,-71940.703125,-238689.28125,-226093.453125,-332703.21875,0.06884765625,1.003662109375,0.1025390625,-1.8920897245407104,-0.2746581733226776,0.6713866591453552,66.66667175292969,65222.0,1.0
1039.3635198,-76462.28125,64612.7265625,-233178.953125,-232042.40625,-74645.0859375,-238099.828125,-225808.859375,-332259.0625,0.066650390625,1.001953125,0.103515625,-1.9226073026657104,-0.1525878757238388,0.6713866591453552,66.66667175292969,65223.0,1.0
1039.3722704,-96121.1796875,50593.17578125,-234873.84375,-230049.703125,-94411.71875,-237984.578125,-225722.140625,-330952.09375,0.06884765625,1.00341796875,0.106689453125,-1.9531248807907104,-0.2136230319738388,0.6408690810203552,66.66667175292969,65224.0,1.0
1039.3766303,-91929.5078125,52112.0234375,-234315.21875,-230216.359375,-94124.453125,-238585.484375,-226023.0,-331259.3125,0.067138671875,1.001953125,0.105224609375,-1.9226073026657104,-0.2441406100988388,0.6408690810203552,66.66667175292969,65225.0,1.0
1039.3766379,-71608.375,66474.625,-232555.875,-232240.171875,-74011.28125,-238783.15625,-226143.703125,-332618.28125,0.068115234375,1.00244140625,0.10546875,-1.9531248807907104,-0.2441406100988388,0.6408690810203552,66.66667175292969,65226.0,1.0
1039.3897749,-73295.3046875,66526.75,-232904.828125,-232328.515625,-71909.40625,-238217.84375,-225871.625,-332495.71875,0.065673828125,1.002685546875,0.10302734375,-1.9836424589157104,-0.3051757514476776,0.7019042372703552,66.66667175292969,65227.0,1.0
1039.3929306,-93687.6953125,52212.60546875,-234707.359375,-230334.375,-91498.390625,-237946.9375,-225712.9375,-331139.5,0.068603515625,1.002685546875,0.104736328125,-1.9836424589157104,-0.3662109076976776,0.7934569716453552,66.66667175292969,65228.0,1.0
1039.392937,-94920.3515625,50026.06640625,-234600.078125,-229986.40625,-96535.9375,-238492.859375,-225979.1875,-331099.4375,0.067626953125,1.00244140625,0.1025390625,-1.9531248807907104,-0.2746581733226776,0.6713866591453552,66.66667175292969,65229.0,1.0
1039.3979503,-74546.109375,64281.02734375,-232773.84375,-231960.78125,-77463.28125,-238837.703125,-226174.546875,-332475.34375,0.067138671875,1.002685546875,0.101806640625,-1.9226073026657104,-0.2441406100988388,0.6103515028953552,66.66667175292969,65230.0,1.0
1039.3979573,-71147.21875,68139.1171875,-232689.890625,-232535.125,-70498.03125,-238323.875,-225933.859375,-332683.75,0.0673828125,1.003662109375,0.101806640625,-1.8920897245407104,-0.2136230319738388,0.6408690810203552,66.66667175292969,65231.0,1.0
1039.3997824,-90736.109375,54832.9453125,-234476.6875,-230675.921875,-88234.9453125,-237940.671875,-225722.140625,-331374.65625,0.067626953125,1.002685546875,0.103759765625,-1.9531248807907104,-0.2136230319738388,0.7324218153953552,66.66667175292969,65232.0,1.0
1039.403532,-96764.8203125,49269.41796875,-234821.359375,-229843.265625,-97694.4765625,-238399.34375,-225938.328125,-330995.90625,0.068115234375,1.00146484375,0.10546875,-1.9836424589157104,-0.1220703050494194,0.6713866591453552,66.66667175292969,65233.0,1.0
1039.4172643,-77486.8828125,62112.90625,-233057.1875,-231634.984375,-80634.4609375,-238866.484375,-226192.6875,-332294.8125,0.0673828125,1.001953125,0.104736328125,-2.014159917831421,-0.2441406100988388,0.7324218153953552,66.66667175292969,65234.0,1.0
1039.4203778,-69466.71875,69015.75,-232539.78125,-232658.421875,-69319.5546875,-238452.53125,-225998.40625,-332820.34375,0.067626953125,1.000732421875,0.1044921875,-1.9226073026657104,-0.3051757514476776,0.6713866591453552,66.66667175292969,65235.0,1.0
1039.4203842,-87190.40625,57168.703125,-234192.734375,-231050.984375,-84458.125,-237966.78125,-225746.453125,-331640.8125,0.0673828125,0.999755859375,0.103515625,-1.8615721464157104,-0.2746581733226776,0.5493163466453552,66.66667175292969,65236.0,1.0
1039.422274,-97865.6875,48502.66015625,-234972.1875,-229783.71875,-98080.265625,-238300.1875,-225894.609375,-330944.40625,0.06884765625,1.000244140625,0.100830078125,-1.9531248807907104,-0.1525878757238388,0.6103515028953552,66.66667175292969,65237.0,1.0
1039.4246403,-81021.140625,59292.56640625,-233386.203125,-231276.546875,-84337.25,-238856.65625,-226189.921875,-332082.03125,0.067626953125,1.001953125,0.10302734375,-1.9836424589157104,-0.1831054538488388,0.6408690810203552,66.66667175292969,65238.0,1.0
1039.4322752,-68653.296875,69116.15625,-232455.828125,-232695.890625,-69214.859375,-238571.796875,-226062.0625,-332902.34375,0.068359375,1.00341796875,0.10205078125,-1.9531248807907104,-0.1831054538488388,0.6713866591453552,66.66667175292969,65239.0,1.0
1039.435374,-83350.9140625,59587.609375,-233881.6875,-231438.734375,-80731.109375,-238024.71875,-225788.484375,-331925.75,0.068603515625,1.00146484375,0.103759765625,-1.9531248807907104,-0.1525878757238388,0.6713866591453552,66.66667175292969,65240.0,1.0
1039.4353801,-98212.765625,48205.3828125,-235053.546875,-229817.078125,-97726.75,-238212.828125,-225858.3125,-330955.6875,0.06787109375,1.001708984375,0.100341796875,-1.9531248807907104,-0.2136230319738388,0.6713866591453552,66.66667175292969,65241.0,1.0
1039.4385221,-85225.953125,56321.83984375,-233736.859375,-230907.75,-88378.0859375,-238820.890625,-226176.328125,-331856.0,0.069091796875,1.002197265625,0.098876953125,-1.9836424589157104,-0.1525878757238388,0.7324218153953552,66.66667175292969,65242.0,1.0
1039.453455,-68999.5703125,68672.515625,-232423.46875,-232650.015625,-70318.3203125,-238698.578125,-226136.28125,-332936.5,0.069091796875,1.004150390625,0.10107421875,-1.9531248807907104,-0.1525878757238388,0.7629393935203552,66.66667175292969,65243.0,1.0
1039.4534613,-79777.3125,62180.5,-233543.46875,-231816.84375,-77406.421875,-238111.53125,-225848.03125,-332217.03125,0.068603515625,1.0029296875,0.1015625,-2.014159917831421,-0.1831054538488388,0.7324218153953552,66.66667175292969,65244.0,1.0
1039.4534639,-97709.8515625,48953.09375,-235040.3125,-229942.78125,-96518.1484375,-238133.34375,-225828.890625,-331031.21875,0.068359375,1.001708984375,0.105712890625,-1.9226073026657104,-0.1831054538488388,0.6713866591453552,66.66667175292969,65245.0,1.0
1039.4560241,-89235.765625,53759.8828125,-234098.328125,-230572.03125,-91963.75,-238754.1875,-226144.765625,-331639.8125,0.068115234375,1.002197265625,0.104736328125,-1.9226073026657104,-0.3051757514476776,0.6713866591453552,66.66667175292969,65246.0,1.0
1039.4585109,-70387.8828125,67667.140625,-232513.3125,-232517.078125,-72371.9140625,-238802.390625,-226190.015625,-332900.5625,0.06787109375,1.002197265625,0.10302734375,-1.9836424589157104,-0.2136230319738388,0.7019042372703552,66.66667175292969,65247.0,1.0
1039.4672724,-76490.53125,64740.3125,-233248.515625,-232151.21875,-74630.78125,-238209.53125,-225902.46875,-332479.09375,0.068115234375,1.001708984375,0.106201171875,-1.9226073026657104,-0.2441406100988388,0.7629393935203552,66.66667175292969,65248.0,1.0
1039.4703595,-96231.6875,50689.37890625,-234957.609375,-230154.21875,-94382.5703125,-238070.140625,-225804.484375,-331163.8125,0.06591796875,1.0029296875,0.104736328125,-1.9836424589157104,-0.2136230319738388,0.6713866591453552,66.66667175292969,65249.0,1.0
1039.4703654,-92383.515625,51923.55078125,-234431.90625,-230280.375,-94584.8984375,-238670.953125,-226105.078125,-331444.375,0.068603515625,1.00146484375,0.103759765625,-1.9226073026657104,-0.2746581733226776,0.6103515028953552,66.66667175292969,65250.0,1.0
1039.4785131,-71986.2109375,66315.21875,-232659.859375,-232302.765625,-74516.15625,-238883.125,-226235.15625,-332807.5625,0.068115234375,1.001220703125,0.103271484375,-2.014159917831421,-0.1831054538488388,0.6408690810203552,66.66667175292969,65251.0,1.0
1039.4810439,-73298.8828125,66745.3515625,-232980.828125,-232428.375,-71954.6484375,-238318.515625,-225965.328125,-332710.28125,0.066162109375,1.00146484375,0.10595703125,-2.044677495956421,-0.2136230319738388,0.6408690810203552,66.66667175292969,65252.0,1.0
1039.4847804,-93649.703125,52562.9921875,-234791.046875,-230444.703125,-91352.390625,-238038.578125,-225800.734375,-331357.5625,0.067626953125,1.0029296875,0.102294921875,-1.9531248807907104,-0.1525878757238388,0.7019042372703552,66.66667175292969,65253.0,1.0
1039.4941105,-94955.21875,50203.44921875,-234715.328125,-230062.578125,-96523.0625,-238581.09375,-226066.09375,-331294.34375,0.0673828125,1.0029296875,0.101806640625,-1.9836424589157104,-0.2441406100988388,0.6713866591453552,66.66667175292969,65254.0,1.0
1039.4941169,-74465.2890625,64221.125,-232886.140625,-232029.0,-77416.7890625,-238946.15625,-226272.625,-332670.78125,0.0673828125,1.004150390625,0.10205078125,-1.9836424589157104,-0.2136230319738388,0.6103515028953552,66.66667175292969,65255.0,1.0
1039.496611,-70872.0234375,68059.1875,-232767.328125,-232634.015625,-70135.484375,-238442.34375,-226031.484375,-332899.65625,0.067626953125,1.00390625,0.1025390625,-1.9531248807907104,-0.2136230319738388,0.6408690810203552,66.66667175292969,65256.0,1.0
1039.496617,-90475.9296875,54648.49609375,-234551.34375,-230789.28125,-87882.59375,-238035.265625,-225810.46875,-331594.75,0.068359375,1.0029296875,0.1044921875,-1.9531248807907104,-0.2746581733226776,0.6408690810203552,66.66667175292969,65257.0,1.0
1039.5235366,-97061.46875,48725.28515625,-234931.515625,-229919.359375,-97957.1484375,-238482.75,-226020.140625,-331188.5,0.06591796875,1.002685546875,0.10400390625,-1.9531248807907104,-0.1831054538488388,0.6103515028953552,66.66667175292969,65258.0,1.0
1039.527197,-78072.140625,61588.26953125,-233170.1875,-231690.953125,-81364.734375,-238964.828125,-226282.546875,-332478.71875,0.06787109375,1.001708984375,0.100341796875,-2.044677495956421,-0.2136230319738388,0.6408690810203552,66.66667175292969,65259.0,1.0
1039.5272017,-69602.6171875,68968.3671875,-232616.765625,-232747.75,-69675.84375,-238556.15625,-226093.53125,-333029.21875,0.0693359375,1.0009765625,0.099365234375,-2.044677495956421,-0.2746581733226776,0.6408690810203552,66.66667175292969,65260.0,1.0
1039.5272035,-87022.859375,57518.10546875,-234263.375,-231167.296875,-84360.5859375,-238064.78125,-225838.640625,-331864.21875,0.0693359375,1.001708984375,0.09765625,-1.9531248807907104,-0.1525878757238388,0.5187987685203552,66.66667175292969,65261.0,1.0
1039.5308331,-98087.6875,48620.0546875,-235081.71875,-229868.84375,-98243.875,-238390.390625,-225981.59375,-331144.0625,0.068603515625,1.00244140625,0.100830078125,-1.9836424589157104,-0.3051757514476776,0.5187987685203552,66.66667175292969,65262.0,1.0
1039.5308393,-81521.2890625,59206.9140625,-233507.25,-231332.703125,-84760.59375,-238957.953125,-226283.890625,-332267.1875,0.069091796875,1.00146484375,0.101318359375,-2.014159917831421,-0.3356933295726776,0.5187987685203552,66.66667175292969,65263.0,1.0
1039.5308417,-68701.0390625,69296.578125,-232532.8125,-232786.8125,-69314.015625,-238690.796875,-226166.859375,-333115.3125,0.06982421875,1.00244140625,0.104248046875,-2.014159917831421,-0.2136230319738388,0.6408690810203552,66.66667175292969,65264.0,1.0
1039.5385167,-83071.421875,60033.5703125,-233937.484375,-231564.265625,-80465.9296875,-238133.34375,-225887.71875,-332158.125,0.0703125,1.004150390625,0.10205078125,-2.044677495956421,-0.2441406100988388,0.7019042372703552,66.66667175292969,65265.0,1.0
1039.5410353,-98193.8125,48552.55078125,-235150.109375,-229909.25,-97641.0078125,-238295.171875,-225941.453125,-331159.34375,0.069580078125,1.00390625,0.10009765625,-2.014159917831421,-0.2441406100988388,0.7019042372703552,66.66667175292969,65266.0,1.0
1039.544107,-85291.4921875,56335.609375,-233865.859375,-230969.96875,-88390.78125,-238910.125,-226260.46875,-332040.90625,0.068359375,1.00390625,0.102783203125,-1.9226073026657104,-0.2746581733226776,0.7019042372703552,66.66667175292969,65267.0,1.0
1039.5441129,-68880.4765625,68673.953125,-232535.21875,-232728.78125,-70183.6796875,-238802.65625,-226225.5,-333134.15625,0.067138671875,1.0,0.105712890625,-1.9531248807907104,-0.2441406100988388,0.5798339247703552,66.66667175292969,65268.0,1.0
1039.5522654,-79279.2265625,62400.62109375,-233616.15625,-231934.3125,-76928.1796875,-238214.359375,-225937.34375,-332439.65625,0.0693359375,1.000732421875,0.10205078125,-1.9836424589157104,-0.3051757514476776,0.7019042372703552,66.66667175292969,65269.0,1.0
1039.5566096,-97446.8125,49058.328125,-235133.125,-230044.875,-96167.578125,-238218.28125,-225910.171875,-331239.0,0.0693359375,1.002197265625,0.09912109375,-1.9531248807907104,-0.3662109076976776,0.7324218153953552,66.66667175292969,65270.0,1.0
1039.5566175,-89339.3046875,53561.3984375,-234221.96875,-230633.0,-92014.1796875,-238843.328125,-226228.546875,-331822.03125,0.06982421875,1.001953125,0.102294921875,-1.9836424589157104,-0.2441406100988388,0.7324218153953552,66.66667175292969,65271.0,1.0
1039.5703762,-70280.859375,67560.03125,-232610.328125,-232589.5,-72315.8515625,-238903.40625,-226283.078125,-333096.25,0.068359375,1.00244140625,0.1025390625,-1.9836424589157104,-0.2441406100988388,0.7019042372703552,66.66667175292969,65272.0,1.0
1039.5703828,-75944.703125,64940.8515625,-233310.828125,-232265.390625,-74174.7109375,-238309.21875,-225995.453125,-332701.875,0.0693359375,1.002685546875,0.106689453125,-2.014159917831421,-0.1525878757238388,0.7324218153953552,66.66667175292969,65273.0,1.0
1039.5729184,-95804.9453125,50850.9375,-235036.5625,-230265.09375,-93973.9765625,-238160.703125,-225890.578125,-331380.28125,0.06884765625,1.0029296875,0.104736328125,-2.075195074081421,-0.1831054538488388,0.7019042372703552,66.66667175292969,65274.0,1.0
1039.5729227,-92405.421875,51772.9921875,-234549.375,-230348.421875,-94566.3046875,-238758.84375,-226189.734375,-331632.84375,0.06884765625,1.002685546875,0.09912109375,-1.9531248807907104,-0.3356933295726776,0.7324218153953552,66.66667175292969,65275.0,1.0
1039.5747862,-71942.3125,66146.7734375,-232765.890625,-232371.78125,-74509.453125,-238990.578125,-226329.484375,-333002.28125,0.067138671875,1.001953125,0.102294921875,-2.044677495956421,-0.2746581733226776,0.6713866591453552,66.66667175292969,65276.0,1.0
1039.5885145,-72891.8125,66762.515625,-233048.78125,-232537.640625,-71587.6328125,-238430.0,-226060.28125,-332931.84375,0.0673828125,1.001708984375,0.10302734375,-2.075195074081421,-0.1831054538488388,0.6103515028953552,66.66667175292969,65277.0,1.0
1039.5916161,-93281.7890625,52524.90234375,-234863.296875,-230558.96875,-90982.515625,-238131.203125,-225887.640625,-331577.25,0.06787109375,1.00244140625,0.1005859375,-2.014159917831421,-0.2136230319738388,0.6713866591453552,66.66667175292969,65278.0,1.0
1039.5916216,-95297.1171875,49765.71484375,-234829.9375,-230134.5625,-96818.015625,-238669.703125,-226150.84375,-331485.40625,0.068359375,1.00146484375,0.103271484375,-2.044677495956421,-0.1831054538488388,0.7019042372703552,66.66667175292969,65279.0,1.0
1039.5935286,-75001.4609375,63879.859375,-232998.0,-232086.484375,-78029.8515625,-239043.78125,-226361.765625,-332855.5625,0.06787109375,1.002685546875,0.10302734375,-1.9836424589157104,-0.1831054538488388,0.6103515028953552,66.66667175292969,65280.0,1.0
1039.5972615,-70855.390625,68280.9140625,-232839.296875,-232731.46875,-70292.84375,-238538.90625,-226123.125,-333112.1875,0.068603515625,1.002685546875,0.10400390625,-1.9531248807907104,-0.2136230319738388,0.6408690810203552,66.66667175292969,65281.0,1.0
1039.6066003,-90237.484375,55205.32421875,-234619.484375,-230908.1875,-87626.53125,-238130.765625,-225900.328125,-331818.8125,0.069580078125,1.002197265625,0.1025390625,-1.9226073026657104,-0.2746581733226776,0.6103515028953552,66.66667175292969,65282.0,1.0
1039.6066063,-97034.0234375,49099.98828125,-235041.75,-230000.890625,-97870.6015625,-238570.8125,-226106.6875,-331386.625,0.070556640625,1.002197265625,0.099609375,-1.9836424589157104,-0.2746581733226776,0.5798339247703552,66.66667175292969,65283.0,1.0
1039.6090917,-77993.8203125,61659.97265625,-233292.234375,-231751.5625,-81324.3203125,-239063.265625,-226374.1875,-332666.9375,0.069091796875,1.003662109375,0.101806640625,-1.9531248807907104,-0.2136230319738388,0.6408690810203552,66.66667175292969,65284.0,1.0
1039.6090982,-69247.5859375,69097.5625,-232700.625,-232846.359375,-69238.9140625,-238670.0625,-226190.984375,-333244.9375,0.06884765625,1.00341796875,0.1015625,-1.9531248807907104,-0.2136230319738388,0.7324218153953552,66.66667175292969,65285.0,1.0
1039.6147679,-86589.859375,57599.64453125,-234328.1875,-231291.484375,-83791.6875,-238165.53125,-225930.90625,-332093.5625,0.06884765625,1.00146484375,0.101806640625,-2.044677495956421,-0.3662109076976776,0.7629393935203552,66.66667175292969,65286.0,1.0
1039.6291023,-98003.109375,48434.53515625,-235181.578125,-229955.5625,-98092.9609375,-238471.84375,-226062.96875,-331344.40625,0.067626953125,1.001708984375,0.103515625,-2.075195074081421,-0.2441406100988388,0.7019042372703552,66.66667175292969,65287.0,1.0
1039.6291084,-81638.234375,58797.25,-233626.96875,-231388.3125,-84993.8515625,-239046.46875,-226368.46875,-332449.9375,0.068115234375,1.001953125,0.103515625,-2.014159917831421,-0.2441406100988388,0.6713866591453552,66.66667175292969,65288.0,1.0
1039.631013,-68468.2265625,69126.4375,-232612.828125,-232878.453125,-69165.8671875,-238797.203125,-226261.171875,-333326.5625,0.069580078125,1.004150390625,0.1005859375,-1.9531248807907104,-0.2136230319738388,0.6408690810203552,66.66667175292969,65289.0,1.0
1039.6335447,-82575.0390625,60088.734375,-233991.125,-231695.25,-79884.78125,-238238.40625,-225983.484375,-332393.25,0.0693359375,1.002197265625,0.103759765625,-1.9836424589157104,-0.3051757514476776,0.7019042372703552,66.66667175292969,65290.0,1.0
1039.6359296,-98180.21875,48256.703125,-235242.375,-230009.46875,-97484.3671875,-238384.578125,-226029.4375,-331368.65625,0.069580078125,1.002197265625,0.103759765625,-2.044677495956421,-0.2746581733226776,0.7324218153953552,66.66667175292969,65291.0,1.0
1039.6435367,-85953.0078125,55842.52734375,-233992.640625,-231026.75,-88978.6328125,-238998.625,-226346.5625,-332221.9375,0.06884765625,1.00146484375,0.10302734375,-2.105712652206421,-0.3051757514476776,0.7324218153953552,66.66667175292969,65292.0,1.0
1039.6460228,-69197.3359375,68544.0390625,-232631.875,-232809.34375,-70657.625,-238898.234375,-226317.859375,-333335.0625,0.068359375,1.002197265625,0.102783203125,-1.9531248807907104,-0.3356933295726776,0.5798339247703552,66.66667175292969,65293.0,1.0
1039.6497881,-79029.15625,62837.37109375,-233680.96875,-232054.65625,-76867.4765625,-238311.546875,-226030.859375,-332666.5625,0.067626953125,1.00146484375,0.10009765625,-2.044677495956421,-0.2136230319738388,0.6103515028953552,66.66667175292969,65294.0,1.0
1039.6566008,-97335.7734375,49518.32421875,-235221.71875,-230147.078125,-96064.5859375,-238306.171875,-225996.625,-331450.09375,0.0673828125,1.0029296875,0.099609375,-2.105712652206421,-0.1525878757238388,0.6713866591453552,66.66667175292969,65295.0,1.0
1039.6566067,-89389.1875,53692.19921875,-234345.71875,-230689.765625,-92054.234375,-238926.5625,-226311.421875,-332003.53125,0.06787109375,1.000732421875,0.103759765625,-1.9836424589157104,-0.2136230319738388,0.6713866591453552,66.66667175292969,65296.0,1.0
1039.665351,-70124.9375,67609.9140625,-232715.90625,-232659.40625,-72179.0625,-239004.265625,-226372.125,-333289.90625,0.068603515625,1.0,0.10205078125,-1.9836424589157104,-0.1831054538488388,0.6103515028953552,66.66667175292969,65297.0,1.0
1039.6653574,-75545.1484375,64996.4609375,-233384.046875,-232382.25,-73715.4296875,-238418.5625,-226089.96875,-332927.0,0.068603515625,1.003662109375,0.099853515625,-1.9531248807907104,-0.3051757514476776,0.7019042372703552,66.66667175292969,65298.0,1.0
1039.6672624,-95574.3671875,50700.10546875,-235119.890625,-230375.859375,-93704.5078125,-238252.625,-225979.8125,-331597.71875,0.06787109375,1.003662109375,0.100341796875,-1.9531248807907104,-0.2136230319738388,0.6408690810203552,66.66667175292969,65299.0,1.0
1039.6765987,-92894.3046875,51277.9453125,-234670.703125,-230414.21875,-94999.296875,-238846.015625,-226275.921875,-331820.0625,0.06640625,1.003662109375,0.102783203125,-2.044677495956421,-0.2746581733226776,0.6713866591453552,66.66667175292969,65300.0,1.0
1039.6766045,-72471.8671875,65835.90625,-232878.90625,-232437.234375,-75112.859375,-239083.921875,-226419.25,-333192.375,0.06591796875,1.003173828125,0.100341796875,-1.9531248807907104,-0.3356933295726776,0.5798339247703552,66.66667175292969,65301.0,1.0
1039.6785269,-72835.0390625,67040.75,-233124.953125,-232648.046875,-71685.7109375,-238524.328125,-226153.984375,-333152.40625,0.06689453125,1.000732421875,0.101806640625,-2.014159917831421,-0.3356933295726776,0.6713866591453552,66.66667175292969,65302.0,1.0
1039.6872772,-93123.8125,53034.703125,-234940.1875,-230677.4375,-90762.484375,-238225.078125,-225979.28125,-331800.75,0.068603515625,1.003173828125,0.103759765625,-1.8920897245407104,-0.3967284858226776,0.7019042372703552,66.66667175292969,65303.0,1.0
1039.6916103,-95333.4140625,50044.93359375,-234944.828125,-230205.09375,-96795.6640625,-238752.9375,-226235.421875,-331675.5,0.069091796875,1.00439453125,0.10302734375,-1.9836424589157104,-0.3662109076976776,0.6103515028953552,66.66667175292969,65304.0,1.0
1039.6916169,-74971.5078125,63899.88671875,-233118.6875,-232146.5625,-78003.03125,-239137.296875,-226449.734375,-333041.90625,0.067138671875,1.003662109375,0.101318359375,-1.9836424589157104,-0.3967284858226776,0.7324218153953552,66.66667175292969,65305.0,1.0
1039.6997963,-70521.90625,68358.4296875,-232924.328125,-232837.234375,-69886.84375,-238649.9375,-226218.0,-333330.96875,0.06640625,1.003173828125,0.10009765625,-1.9531248807907104,-0.3356933295726776,0.6103515028953552,66.66667175292969,65306.0,1.0
1039.7066052,-89857.0546875,55189.5,-234690.5625,-231029.703125,-87201.671875,-238227.3125,-225992.328125,-332044.84375,0.06884765625,1.00390625,0.1044921875,-1.8920897245407104,-0.3662109076976776,0.7324218153953552,66.66667175292969,65307.0,1.0
1039.7066115,-97251.28125,48687.734375,-235149.65625,-230078.40625,-98000.6953125,-238655.671875,-226191.890625,-331581.09375,0.0673828125,1.004150390625,0.1005859375,-1.9531248807907104,-0.3662109076976776,0.7629393935203552,66.66667175292969,65308.0,1.0
1039.715362,-78593.03125,61225.09765625,-233413.46875,-231806.90625,-81865.1484375,-239152.046875,-226460.28125,-332848.96875,0.069091796875,1.001953125,0.102294921875,-2.044677495956421,-0.2746581733226776,0.6408690810203552,66.66667175292969,65309.0,1.0
1039.7153683,-69310.9765625,69090.765625,-232777.609375,-232942.921875,-69403.6875,-238767.25,-226281.65625,-333457.09375,0.069091796875,1.001953125,0.10009765625,-1.9531248807907104,-0.3051757514476776,0.7324218153953552,66.66667175292969,65310.0,1.0
1039.7172679,-86355.25,57814.1328125,-234388.09375,-231415.84375,-83628.34375,-238263.265625,-226022.546875,-332321.90625,0.068115234375,1.001953125,0.100341796875,-1.9836424589157104,-0.3051757514476776,0.7019042372703552,66.66667175292969,65311.0,1.0
1039.7212039,-98398.28125,48226.3046875,-235286.09375,-230038.4375,-98428.328125,-238557.671875,-226148.796875,-331541.375,0.06982421875,1.001953125,0.102294921875,-2.014159917831421,-0.2441406100988388,0.7324218153953552,66.66667175292969,65312.0,1.0
1039.7329267,-82630.9140625,58528.76171875,-233755.53125,-231442.40625,-85876.390625,-239134.34375,-226453.140625,-332629.375,0.068115234375,1.001953125,0.100341796875,-2.014159917831421,-0.3051757514476776,0.7934569716453552,66.66667175292969,65313.0,1.0
1039.732933,-69102.8359375,69244.0078125,-232723.328125,-232953.5625,-69951.21875,-238884.90625,-226343.78125,-333520.40625,0.067138671875,1.001220703125,0.102783203125,-1.9836424589157104,-0.2746581733226776,0.6713866591453552,66.66667175292969,65314.0,1.0
1039.735355,-82721.9296875,60710.828125,-234075.796875,-231798.328125,-80201.28125,-238325.125,-226065.90625,-332605.25,0.06787109375,1.00244140625,0.099365234375,-2.014159917831421,-0.2441406100988388,0.7019042372703552,66.66667175292969,65315.0,1.0
1039.7353604,-98319.4296875,48942.54296875,-235335.890625,-230102.09375,-97656.1171875,-238473.71875,-226114.453125,-331574.375,0.068359375,1.003173828125,0.103271484375,-1.9531248807907104,-0.2136230319738388,0.7019042372703552,66.66667175292969,65316.0,1.0
1039.7372649,-86151.3125,56197.921875,-234112.625,-231084.6875,-89230.5859375,-239084.28125,-226429.796875,-332405.3125,0.068603515625,1.00390625,0.10302734375,-1.9531248807907104,-0.1220703050494194,0.5798339247703552,66.66667175292969,65317.0,1.0
1039.7485376,-69191.9765625,68906.765625,-232733.171875,-232887.03125,-70669.9609375,-238996.21875,-226405.390625,-333533.28125,0.06884765625,1.00439453125,0.1044921875,-1.9836424589157104,-0.1525878757238388,0.7324218153953552,66.66667175292969,65318.0,1.0
1039.7510347,-78810.5546875,63230.94140625,-233753.578125,-232172.140625,-76586.828125,-238412.390625,-226120.265625,-332890.71875,0.0703125,1.005126953125,0.103271484375,-1.8920897245407104,-0.1831054538488388,0.5798339247703552,66.66667175292969,65319.0,1.0
1039.7535344,-97287.1328125,49755.96875,-235306.390625,-230252.484375,-95939.859375,-238394.59375,-226082.546875,-331663.6875,0.068115234375,1.001953125,0.09814453125,-1.9836424589157104,-0.1831054538488388,0.5493163466453552,66.66667175292969,65320.0,1.0
1039.756017,-89711.859375,53650.71484375,-234464.359375,-230754.0625,-92361.6171875,-239011.234375,-226395.375,-332190.375,0.06884765625,1.002685546875,0.097900390625,-1.9226073026657104,-0.2441406100988388,0.6103515028953552,66.66667175292969,65321.0,1.0
1039.7622767,-70317.6953125,67652.1171875,-232823.296875,-232733.703125,-72434.046875,-239098.5,-226460.90625,-333486.0,0.06884765625,1.001953125,0.101318359375,-1.9226073026657104,-0.1831054538488388,0.5187987685203552,66.66667175292969,65322.0,1.0
1039.766605,-75365.078125,65313.765625,-233457.453125,-232494.546875,-73565.8515625,-238514.578125,-226178.921875,-333147.59375,0.067138671875,1.0029296875,0.1005859375,-1.9531248807907104,-0.1831054538488388,0.6408690810203552,66.66667175292969,65323.0,1.0
1039.7666111,-95442.21875,51044.59375,-235200.53125,-230486.375,-93483.671875,-238341.3125,-226067.25,-331815.15625,0.065673828125,1.002197265625,0.103271484375,-1.9531248807907104,-0.1831054538488388,0.6103515028953552,66.66667175292969,65324.0,1.0
1039.7797744,-92893.40625,51364.22265625,-234787.734375,-230482.078125,-94933.765625,-238928.984375,-226360.234375,-332009.4375,0.06689453125,1.00244140625,0.1025390625,-1.9836424589157104,-0.3967284858226776,0.6713866591453552,66.66667175292969,65325.0,1.0
1039.7853516,-72360.5546875,65750.609375,-232992.265625,-232504.015625,-74953.0,-239176.90625,-226505.796875,-333383.25,0.0673828125,1.001953125,0.100341796875,-1.9836424589157104,-0.3662109076976776,0.7019042372703552,66.66667175292969,65326.0,1.0
1039.785358,-72459.171875,66960.734375,-233202.46875,-232752.65625,-71244.7578125,-238625.53125,-226240.875,-333368.0625,0.06689453125,1.0009765625,0.1015625,-1.9836424589157104,-0.2746581733226776,0.6713866591453552,66.66667175292969,65327.0,1.0
1039.7872805,-92748.296875,52812.79296875,-235008.75,-230785.609375,-90430.2421875,-238309.65625,-226059.921875,-332015.25,0.067626953125,0.999755859375,0.10009765625,-1.9226073026657104,-0.2136230319738388,0.7019042372703552,66.66667175292969,65328.0,1.0
1039.7897704,-95623.359375,49469.2421875,-235049.796875,-230276.265625,-97036.703125,-238834.296875,-226314.28125,-331864.6875,0.069091796875,1.001953125,0.102783203125,-1.9531248807907104,-0.1525878757238388,0.7019042372703552,66.66667175292969,65329.0,1.0
1039.793511,-75513.046875,63419.4140625,-233229.828125,-232205.125,-78562.71875,-239221.796875,-226530.5625,-333225.0,0.067626953125,1.003662109375,0.105712890625,-1.9226073026657104,-0.1831054538488388,0.6408690810203552,66.66667175292969,65330.0,1.0
1039.8022644,-70544.96875,68383.2890625,-233003.265625,-232932.640625,-70102.671875,-238731.9375,-226300.609375,-333538.8125,0.0693359375,1.001220703125,0.106201171875,-2.014159917831421,-0.2136230319738388,0.6713866591453552,66.66667175292969,65331.0,1.0
1039.8053475,-89610.5625,55534.34375,-234760.921875,-231146.015625,-87042.078125,-238316.71875,-226077.53125,-332266.65625,0.068603515625,1.001220703125,0.103271484375,-2.014159917831421,-0.2746581733226776,0.6103515028953552,66.66667175292969,65332.0,1.0
1039.8053523,-97266.8359375,48872.89453125,-235252.75,-230157.796875,-97965.5546875,-238739.171875,-226275.296875,-331777.78125,0.068603515625,1.00146484375,0.1015625,-2.075195074081421,-0.2441406100988388,0.6103515028953552,66.66667175292969,65333.0,1.0
1039.8072729,-78640.953125,61141.14453125,-233522.453125,-231863.234375,-81801.3984375,-239243.34375,-226550.59375,-333036.1875,0.0673828125,1.002197265625,0.104248046875,-1.9531248807907104,-0.2441406100988388,0.7019042372703552,66.66667175292969,65334.0,1.0
1039.8160141,-68973.5546875,69135.2890625,-232853.515625,-233037.6875,-69042.125,-238873.28125,-226377.9375,-333672.03125,0.06884765625,1.003173828125,0.1015625,-1.9836424589157104,-0.3356933295726776,0.7629393935203552,66.66667175292969,65335.0,1.0
1039.8203489,-85821.40625,57929.82421875,-234449.78125,-231534.671875,-83162.796875,-238359.640625,-226114.453125,-332548.71875,0.06884765625,1.003173828125,0.103271484375,-1.9531248807907104,-0.3051757514476776,0.7019042372703552,66.66667175292969,65336.0,1.0
1039.8203571,-98195.78125,48143.3359375,-235375.859375,-230131.78125,-98181.7421875,-238645.296875,-226236.234375,-331749.71875,0.068603515625,1.0029296875,0.103515625,-1.9836424589157104,-0.2746581733226776,0.7019042372703552,66.66667175292969,65337.0,1.0
1039.8291212,-82730.6015625,58204.03515625,-233874.890625,-231500.96875,-85986.625,-239218.21875,-226536.8125,-332814.53125,0.06787109375,1.0029296875,0.10595703125,-1.9226073026657104,-0.2441406100988388,0.6713866591453552,66.66667175292969,65338.0,1.0
1039.8291275,-68917.140625,69131.8046875,-232814.796875,-233039.484375,-69818.71875,-238972.796875,-226430.15625,-333724.625,0.06787109375,1.00244140625,0.10595703125,-2.044677495956421,-0.2136230319738388,0.7324218153953552,66.66667175292969,65339.0,1.0
1039.8310199,-82236.09375,60833.2265625,-234141.515625,-231918.5,-79724.203125,-238416.859375,-226153.53125,-332830.8125,0.06689453125,1.002197265625,0.102783203125,-2.075195074081421,-0.1220703050494194,0.6103515028953552,66.66667175292969,65340.0,1.0
1039.83476,-98136.9453125,48876.91796875,-235429.234375,-230198.578125,-97393.6171875,-238558.296875,-226198.859375,-331781.71875,0.067138671875,1.00341796875,0.10107421875,-2.044677495956421,-0.1831054538488388,0.5187987685203552,66.66667175292969,65341.0,1.0
1039.8541086,-86305.8984375,55873.640625,-234236.71875,-231143.6875,-89338.9453125,-239169.9375,-226514.015625,-332588.875,0.06689453125,1.002197265625,0.104248046875,-1.8310545682907104,-0.2136230319738388,0.5798339247703552,66.66667175292969,65342.0,1.0
1039.8541154,-69118.6640625,68694.3359375,-232833.125,-232967.234375,-70610.1484375,-239096.890625,-226495.6875,-333734.4375,0.069580078125,1.0029296875,0.10302734375,-1.8920897245407104,-0.3051757514476776,0.6408690810203552,66.66667175292969,65343.0,1.0
1039.8560287,-78418.5078125,63229.421875,-233819.203125,-232289.796875,-76150.6953125,-238511.984375,-226210.75,-333115.03125,0.06884765625,1.001708984375,0.102783203125,-1.9531248807907104,-0.3662109076976776,0.7019042372703552,66.66667175292969,65344.0,1.0
1039.8585377,-97081.859375,49644.65625,-235391.6875,-230356.546875,-95633.28125,-238481.234375,-226167.828125,-331875.78125,0.068359375,1.002197265625,0.103759765625,-1.9531248807907104,-0.3356933295726776,0.6713866591453552,66.66667175292969,65345.0,1.0
1039.8635294,-89867.609375,53249.546875,-234584.875,-230818.078125,-92494.921875,-239096.0,-226478.96875,-332375.90625,0.068603515625,1.001953125,0.103515625,-2.075195074081421,-0.3051757514476776,0.6103515028953552,66.66667175292969,65346.0,1.0
1039.8660067,-70343.8046875,67309.0625,-232929.0625,-232806.9375,-72511.7421875,-239195.6875,-226550.140625,-333681.53125,0.067626953125,1.0029296875,0.10302734375,-2.075195074081421,-0.2746581733226776,0.6103515028953552,66.66667175292969,65347.0,1.0
1039.8685263,-75039.546875,65238.75390625,-233528.796875,-232605.234375,-73244.8828125,-238612.84375,-226268.6875,-333367.25,0.068603515625,1.00390625,0.101318359375,-2.014159917831421,-0.1831054538488388,0.7019042372703552,66.66667175292969,65348.0,1.0
1039.8715958,-95220.40625,50874.44921875,-235276.984375,-230593.75,-93190.0625,-238428.9375,-226150.484375,-332028.375,0.0693359375,1.00244140625,0.10205078125,-2.014159917831421,-0.1525878757238388,0.6713866591453552,66.66667175292969,65349.0,1.0
1039.8716006,-93354.9296875,50854.15625,-234899.5,-230547.796875,-95346.5546875,-239014.453125,-226441.25,-332195.21875,0.069091796875,1.001708984375,0.102783203125,-1.9226073026657104,-0.2441406100988388,0.7019042372703552,66.66667175292969,65350.0,1.0
1039.8822654,-72887.609375,65399.77734375,-233102.0625,-232569.28125,-75603.796875,-239272.03125,-226593.859375,-333572.71875,0.068603515625,1.00244140625,0.104248046875,-2.105712652206421,-0.3356933295726776,0.7019042372703552,66.66667175292969,65351.0,1.0
1039.8853432,-72476.609375,67183.1796875,-233277.921875,-232857.71875,-71387.8125,-238718.609375,-226330.203125,-333584.25,0.06787109375,1.001708984375,0.104248046875,-1.9531248807907104,-0.3356933295726776,0.6408690810203552,66.66667175292969,65352.0,1.0
1039.8853487,-92677.21875,53283.96875,-235086.8125,-230904.703125,-90194.8359375,-238405.234375,-226150.9375,-332239.28125,0.0673828125,1.002685546875,0.101806640625,-1.9531248807907104,-0.2441406100988388,0.7019042372703552,66.66667175292969,65353.0,1.0
1039.8872793,-95660.1953125,49713.41015625,-235160.65625,-230349.9375,-97045.5546875,-238921.5625,-226401.90625,-332058.15625,0.0673828125,1.0009765625,0.10205078125,-1.9836424589157104,-0.2441406100988388,0.6408690810203552,66.66667175292969,65354.0,1.0
1039.8990961,-75364.0078125,63418.96484375,-233332.546875,-232265.03125,-78568.796875,-239325.0625,-226628.1875,-333416.78125,0.067626953125,1.00146484375,0.10595703125,-1.9531248807907104,-0.2441406100988388,0.6408690810203552,66.66667175292969,65355.0,1.0
1039.8991008,-70168.921875,68418.9609375,-233068.53125,-233038.3125,-69628.4609375,-238853.796875,-226404.3125,-333763.5,0.06689453125,1.002197265625,0.10595703125,-1.8615721464157104,-0.1525878757238388,0.6408690810203552,66.66667175292969,65356.0,1.0
1039.9010029,-89293.4375,55428.484375,-234822.609375,-231265.28125,-86580.46875,-238416.59375,-226171.765625,-332493.84375,0.06689453125,1.00390625,0.104248046875,-1.9226073026657104,-0.1831054538488388,0.7019042372703552,66.66667175292969,65357.0,1.0
1039.9147641,-97501.4453125,48389.3828125,-235354.9375,-230242.375,-98139.359375,-238829.109375,-226362.75,-331978.125,0.06591796875,1.004150390625,0.10302734375,-1.9836424589157104,-0.2441406100988388,0.6408690810203552,66.66667175292969,65358.0,1.0
1039.9184479,-79252.9453125,60659.5078125,-233648.609375,-231923.40625,-82599.8046875,-239331.9375,-226631.859375,-333218.125,0.06689453125,1.00244140625,0.102294921875,-1.9226073026657104,-0.2136230319738388,0.6408690810203552,66.66667175292969,65359.0,1.0
1039.9184526,-69291.0390625,69075.4765625,-232958.03125,-233121.90625,-69582.7734375,-238959.109375,-226459.390625,-333869.8125,0.06689453125,1.00341796875,0.100341796875,-1.8310545682907104,-0.2136230319738388,0.6713866591453552,66.66667175292969,65360.0,1.0
1039.9184545,-85795.921875,58351.37890625,-234530.609375,-231651.609375,-83076.25,-238451.90625,-226201.09375,-332769.375,0.06787109375,1.003173828125,0.100830078125,-1.9226073026657104,-0.2441406100988388,0.6408690810203552,66.66667175292969,65361.0,1.0
1039.9253532,-98251.921875,48530.37890625,-235479.3125,-230221.734375,-98154.1171875,-238732.734375,-226319.734375,-331950.5,0.069091796875,1.003173828125,0.100830078125,-1.9531248807907104,-0.1831054538488388,0.6103515028953552,66.66667175292969,65362.0,1.0
1039.9253594,-82765.296875,58251.33203125,-233996.765625,-231558.546875,-86086.8515625,-239311.109375,-226622.65625,-332995.78125,0.0693359375,1.001708984375,0.09814453125,-1.9531248807907104,-0.1525878757238388,0.6713866591453552,66.66667175292969,65363.0,1.0
1039.9341093,-68719.90625,69176.6875,-232907.25,-233125.75,-69598.1484375,-239085.359375,-226525.640625,-333929.71875,0.068115234375,1.0009765625,0.09912109375,-2.044677495956421,-0.1525878757238388,0.6103515028953552,66.66667175292969,65364.0,1.0
1039.9341169,-81913.9609375,60834.8359375,-234207.484375,-232038.390625,-79277.3515625,-238521.640625,-226246.515625,-333056.125,0.069580078125,1.001708984375,0.09912109375,-1.9226073026657104,-0.2441406100988388,0.6713866591453552,66.66667175292969,65365.0,1.0
1039.9360051,-98111.9140625,48625.05859375,-235520.078125,-230295.046875,-97275.6015625,-238644.046875,-226281.734375,-331987.15625,0.068603515625,1.00146484375,0.10498046875,-1.9226073026657104,-0.1525878757238388,0.6408690810203552,66.66667175292969,65366.0,1.0
1039.9422864,-86767.8671875,55379.22265625,-234357.421875,-231203.953125,-89837.1171875,-239260.5,-226599.765625,-332773.40625,0.071044921875,1.001708984375,0.10205078125,-1.9836424589157104,-0.2441406100988388,0.5187987685203552,66.66667175292969,65367.0,1.0
1039.9466109,-69349.0625,68462.59375,-232927.71875,-233043.5,-71001.75,-239195.0625,-226586.890625,-333932.3125,0.06982421875,1.0029296875,0.100830078125,-1.9226073026657104,-0.3051757514476776,0.5798339247703552,66.66667175292969,65368.0,1.0
1039.9466168,-78248.71875,63402.87109375,-233886.34375,-232404.234375,-76048.6875,-238609.265625,-226300.96875,-333336.9375,0.0703125,1.003173828125,0.103759765625,-2.044677495956421,-0.2441406100988388,0.7019042372703552,66.66667175292969,65369.0,1.0
1039.9585118,-97072.3828125,49739.33984375,-235479.65625,-230460.71875,-95572.6640625,-238570.015625,-226252.953125,-332087.75,0.0693359375,1.004638671875,0.10302734375,-2.014159917831421,-0.1831054538488388,0.6408690810203552,66.66667175292969,65370.0,1.0
1039.961604,-90299.9765625,53046.4140625,-234705.75,-230880.03125,-92839.2265625,-239185.5,-226564.984375,-332561.59375,0.068603515625,1.00439453125,0.104248046875,-2.014159917831421,-0.2136230319738388,0.7019042372703552,66.66667175292969,65371.0,1.0
1039.9616099,-70611.0390625,67181.390625,-233030.0,-232877.203125,-72805.7109375,-239299.21875,-226643.484375,-333876.59375,0.06787109375,1.0029296875,0.103271484375,-1.9836424589157104,-0.2441406100988388,0.6408690810203552,66.66667175292969,65372.0,1.0
1039.9635256,-74839.3671875,65449.30859375,-233594.78125,-232717.4375,-73128.3828125,-238716.640625,-226361.84375,-333589.53125,0.068603515625,1.00341796875,0.103271484375,-2.075195074081421,-0.1831054538488388,0.6408690810203552,66.66667175292969,65373.0,1.0
1039.9697526,-95072.8828125,51095.28515625,-235355.5625,-230705.515625,-93029.5703125,-238518.6875,-226236.765625,-332246.09375,0.068115234375,1.0029296875,0.102783203125,-1.9226073026657104,-0.2136230319738388,0.6713866591453552,66.66667175292969,65374.0,1.0
1039.9791005,-93605.984375,50768.50390625,-235015.8125,-230617.171875,-95621.125,-239101.0,-226525.90625,-332383.875,0.070068359375,1.00341796875,0.103271484375,-1.9531248807907104,-0.2441406100988388,0.7324218153953552,66.66667175292969,65375.0,1.0
1039.9791057,-73084.7578125,65277.01953125,-233208.71875,-232634.203125,-75967.5,-239374.40625,-226686.125,-333763.875,0.06787109375,1.00244140625,0.105224609375,-2.044677495956421,-0.2441406100988388,0.7324218153953552,66.66667175292969,65376.0,1.0
1039.9809958,-72293.6796875,67368.7890625,-233346.6875,-232965.1875,-71272.7421875,-238827.6875,-226425.15625,-333804.375,0.067138671875,1.0029296875,0.1044921875,-1.8920897245407104,-0.2746581733226776,0.6103515028953552,66.66667175292969,65377.0,1.0
1039.9847537,-92516.46875,53503.91015625,-235164.140625,-231017.0,-89964.7890625,-238493.296875,-226235.0625,-332456.71875,0.067626953125,1.003662109375,0.10107421875,-2.044677495956421,-0.3356933295726776,0.7019042372703552,66.66667175292969,65378.0,1.0
1039.9915964,-96018.2734375,49597.00390625,-235283.953125,-230412.15625,-97305.8203125,-238998.90625,-226477.265625,-332239.90625,0.068115234375,1.003662109375,0.099853515625,-1.9531248807907104,-0.2441406100988388,0.7629393935203552,66.66667175292969,65379.0,1.0
1039.9916015,-75829.9921875,63231.65625,-233459.515625,-232318.859375,-78962.1015625,-239418.21875,-226709.90625,-333596.125,0.068115234375,1.00244140625,0.101318359375,-2.014159917831421,-0.3051757514476776,0.6408690810203552,66.66667175292969,65380.0,1.0
1040.0047658,-70148.359375,68548.78125,-233156.328125,-233132.640625,-69664.7578125,-238955.09375,-226493.09375,-333971.90625,0.06640625,1.00341796875,0.102783203125,-1.9531248807907104,-0.2746581733226776,0.6103515028953552,66.66667175292969,65381.0,1.0
1040.0079232,-89026.015625,55759.828125,-234894.578125,-231386.515625,-86314.75,-238511.453125,-226259.484375,-332717.625,0.06640625,1.0029296875,0.10546875,-1.9226073026657104,-0.2441406100988388,0.6408690810203552,66.66667175292969,65382.0,1.0
1040.0079292,-97611.328125,48451.25390625,-235464.46875,-230324.1875,-98209.4609375,-238911.015625,-226443.203125,-332172.96875,0.0673828125,1.001953125,0.10400390625,-1.9836424589157104,-0.2136230319738388,0.5798339247703552,66.66667175292969,65383.0,1.0
1040.0097496,-79585.7109375,60516.1875,-233771.90625,-231982.0625,-82885.546875,-239428.671875,-226721.09375,-333403.1875,0.067626953125,1.002685546875,0.103759765625,-1.8920897245407104,-0.2441406100988388,0.7324218153953552,66.66667175292969,65384.0,1.0
1040.0135213,-69174.453125,69211.8203125,-233037.421875,-233217.21875,-69509.3671875,-239067.125,-226556.671875,-334082.6875,0.068359375,1.0029296875,0.10595703125,-2.105712652206421,-0.2441406100988388,0.7019042372703552,66.66667175292969,65385.0,1.0
1040.0228318,-85381.34375,58708.55859375,-234588.28125,-231775.359375,-82696.71875,-238550.609375,-226292.375,-332997.09375,0.06787109375,1.002685546875,0.103515625,-1.9226073026657104,-0.2746581733226776,0.6713866591453552,66.66667175292969,65386.0,1.0
1040.0228366,-98242.359375,48640.88671875,-235577.921875,-230314.265625,-98076.6875,-238815.078125,-226401.8125,-332153.375,0.06689453125,1.00146484375,0.10400390625,-1.9836424589157104,-0.2136230319738388,0.7019042372703552,66.66667175292969,65387.0,1.0
1040.0253444,-83056.046875,58118.0234375,-234119.96875,-231619.0625,-86361.9609375,-239402.03125,-226709.828125,-333181.46875,0.068115234375,1.002197265625,0.101806640625,-1.9531248807907104,-0.3051757514476776,0.7934569716453552,66.66667175292969,65388.0,1.0
1040.0253505,-68672.34375,69242.0390625,-232995.40625,-233212.21875,-69628.015625,-239193.265625,-226621.9375,-334137.125,0.0673828125,1.004638671875,0.103271484375,-1.8310545682907104,-0.1831054538488388,0.7019042372703552,66.66667175292969,65389.0,1.0
1040.0335335,-81483.2890625,61162.33203125,-234270.171875,-232160.609375,-78990.7109375,-238623.65625,-226340.125,-333284.375,0.066650390625,1.00244140625,0.1025390625,-1.9531248807907104,-0.1831054538488388,0.6408690810203552,66.66667175292969,65390.0,1.0
1040.0360154,-97957.328125,48851.2578125,-235612.96875,-230394.28125,-97105.28125,-238727.109375,-226364.890625,-332194.5,0.068359375,1.00341796875,0.10205078125,-1.9836424589157104,-0.2746581733226776,0.6408690810203552,66.66667175292969,65391.0,1.0
1040.0397585,-86887.40625,55283.2890625,-234480.71875,-231263.3125,-89822.1875,-239348.65625,-226685.234375,-332956.96875,0.06787109375,1.002197265625,0.101318359375,-1.9226073026657104,-0.1831054538488388,0.7324218153953552,66.66667175292969,65392.0,1.0
1040.0591028,-69203.421875,68372.46875,-233021.953125,-233120.125,-70789.6796875,-239306.8125,-226684.078125,-334133.46875,0.067138671875,1.001953125,0.10400390625,-2.014159917831421,-0.1525878757238388,0.7629393935203552,66.66667175292969,65393.0,1.0
1040.0591085,-77731.0546875,63446.4140625,-233949.1875,-232519.21875,-75597.265625,-238715.84375,-226396.265625,-333561.96875,0.0673828125,1.003173828125,0.10302734375,-2.075195074081421,-0.2441406100988388,0.7324218153953552,66.66667175292969,65394.0,1.0
1040.0610134,-96815.3359375,49578.40625,-235564.15625,-230563.796875,-95328.140625,-238655.046875,-226336.90625,-332298.75,0.06787109375,1.003173828125,0.1044921875,-2.075195074081421,-0.3051757514476776,0.7324218153953552,66.66667175292969,65395.0,1.0
1040.0641028,-90758.4609375,52594.91015625,-234825.375,-230943.0625,-93280.2734375,-239272.671875,-226649.03125,-332746.59375,0.06884765625,1.00390625,0.10205078125,-2.044677495956421,-0.2441406100988388,0.6713866591453552,66.66667175292969,65396.0,1.0
1040.0641089,-70962.859375,66964.3984375,-233128.890625,-232945.421875,-73343.6796875,-239401.234375,-226737.0,-334070.8125,0.068603515625,1.0009765625,0.100341796875,-2.044677495956421,-0.2441406100988388,0.7019042372703552,66.66667175292969,65397.0,1.0
1040.0660234,-74696.4921875,65801.390625,-233660.765625,-232827.9375,-73093.0703125,-238817.578125,-226458.234375,-333812.21875,0.068603515625,1.00048828125,0.1005859375,-2.075195074081421,-0.3356933295726776,0.6408690810203552,66.66667175292969,65398.0,1.0
1040.0685087,-94995.2734375,51577.01171875,-235441.125,-230812.265625,-92800.9609375,-238603.984375,-226321.4375,-332460.21875,0.06689453125,1.000732421875,0.1025390625,-2.044677495956421,-0.3051757514476776,0.5798339247703552,66.66667175292969,65399.0,1.0
1040.0779329,-93690.7421875,50960.81640625,-235138.125,-230673.765625,-95646.515625,-239180.75,-226605.484375,-332564.65625,0.066650390625,1.001953125,0.103271484375,-1.9836424589157104,-0.1831054538488388,0.5798339247703552,66.66667175292969,65400.0,1.0
1040.0779387,-73009.828125,65299.015625,-233315.296875,-232691.59375,-75839.5625,-239479.28125,-226780.0,-333952.4375,0.065673828125,1.00146484375,0.10498046875,-2.075195074081421,-0.1220703050494194,0.7019042372703552,66.66667175292969,65401.0,1.0
1040.0797681,-71875.5234375,67420.8203125,-233416.859375,-233067.46875,-70836.6171875,-238943.375,-226525.109375,-334024.125,0.069091796875,1.002685546875,0.102783203125,-2.044677495956421,-0.1525878757238388,0.7019042372703552,66.66667175292969,65402.0,1.0
1040.0935324,-92010.6015625,53494.7890625,-235226.734375,-231136.1875,-89599.4765625,-238592.015625,-226328.5,-332682.40625,0.0693359375,1.00390625,0.102783203125,-2.044677495956421,-0.1220703050494194,0.6408690810203552,66.66667175292969,65403.0,1.0
1040.0965868,-96104.1875,49284.34765625,-235381.046875,-230503.359375,-97305.734375,-239092.78125,-226568.640625,-332445.03125,0.068359375,1.00341796875,0.102783203125,-2.014159917831421,-0.1525878757238388,0.7019042372703552,66.66667175292969,65404.0,1.0
1040.0965923,-76286.1484375,62876.80078125,-233572.25,-232388.421875,-79310.609375,-239519.25,-226805.3125,-333789.4375,0.0673828125,1.00341796875,0.1015625,-2.105712652206421,-0.2136230319738388,0.7324218153953552,66.66667175292969,65405.0,1.0
1040.0985194,-70134.859375,68567.9140625,-233236.4375,-233228.3125,-69784.921875,-239056.125,-226588.40625,-334183.4375,0.068115234375,1.001708984375,0.099853515625,-2.075195074081421,-0.2136230319738388,0.7019042372703552,66.66667175292969,65406.0,1.0
1040.1053607,-88765.578125,56021.69921875,-234964.140625,-231501.59375,-86165.171875,-238605.515625,-226347.984375,-332938.1875,0.0703125,1.002197265625,0.103515625,-1.9836424589157104,-0.2136230319738388,0.7019042372703552,66.66667175292969,65407.0,1.0
1040.105367,-97595.5,48590.01171875,-235565.5,-230406.625,-98122.375,-238995.5,-226525.734375,-332368.9375,0.067138671875,1.002685546875,0.103271484375,-1.9836424589157104,-0.2746581733226776,0.7019042372703552,66.66667175292969,65408.0,1.0
1040.1072541,-79597.609375,60330.578125,-233885.625,-232038.828125,-82835.9296875,-239525.6875,-226810.21875,-333586.3125,0.068603515625,1.00146484375,0.10400390625,-1.9836424589157104,-0.2136230319738388,0.5798339247703552,66.66667175292969,65409.0,1.0
1040.1166048,-68933.5859375,69013.15625,-233121.90625,-233305.015625,-69189.7421875,-239183.96875,-226654.484375,-334291.0,0.06640625,1.0029296875,0.103271484375,-1.9226073026657104,-0.1831054538488388,0.6713866591453552,66.66667175292969,65410.0,1.0
1040.1166109,-85023.890625,58449.1875,-234658.375,-231892.828125,-82299.3046875,-238655.046875,-226385.8125,-333221.625,0.067138671875,1.002197265625,0.101318359375,-1.8920897245407104,-0.2441406100988388,0.7019042372703552,66.66667175292969,65411.0,1.0
1040.1185214,-98333.8203125,48045.16796875,-235678.0625,-230405.546875,-98123.1796875,-238906.28125,-226488.265625,-332356.5,0.068603515625,1.0029296875,0.1025390625,-1.9226073026657104,-0.2136230319738388,0.7934569716453552,66.66667175292969,65412.0,1.0
1040.1297689,-83744.3046875,57425.74609375,-234236.28125,-231675.84375,-86966.7109375,-239500.828125,-226799.140625,-333364.40625,0.06640625,1.003173828125,0.102783203125,-2.044677495956421,-0.1831054538488388,0.6713866591453552,66.66667175292969,65413.0,1.0
1040.1328435,-68993.671875,68925.2734375,-233077.828125,-233292.671875,-70056.359375,-239302.34375,-226717.953125,-334339.65625,0.067626953125,1.0048828125,0.104736328125,-2.014159917831421,-0.2441406100988388,0.7019042372703552,66.66667175292969,65414.0,1.0
1040.1328498,-81312.703125,61369.22265625,-234330.515625,-232277.28125,-78914.984375,-238727.90625,-226433.828125,-333508.96875,0.069091796875,1.0029296875,0.103759765625,-2.075195074081421,-0.2746581733226776,0.7629393935203552,66.66667175292969,65415.0,1.0
1040.1347606,-98001.8515625,48967.21875,-235701.125,-230492.453125,-97123.96875,-238816.953125,-226448.84375,-332401.84375,0.067626953125,1.0009765625,0.104248046875,-2.044677495956421,-0.2746581733226776,0.7629393935203552,66.66667175292969,65416.0,1.0
1040.1623014,-87282.5859375,55156.77734375,-234592.296875,-231321.96875,-90218.0859375,-239438.78125,-226767.3125,-333138.90625,0.06787109375,1.001708984375,0.10546875,-2.075195074081421,-0.2441406100988388,0.8544921278953552,66.66667175292969,65417.0,1.0
1040.1679232,-69378.1171875,68361.46875,-233110.109375,-233196.5625,-71055.0390625,-239415.53125,-226776.421875,-334332.84375,0.06787109375,1.00146484375,0.10498046875,-2.105712652206421,-0.3356933295726776,0.8544921278953552,66.66667175292969,65418.0,1.0
1040.1679294,-77552.9609375,63716.2421875,-234008.203125,-232633.921875,-75461.3671875,-238823.125,-226487.640625,-333785.59375,0.066650390625,1.001953125,0.101806640625,-2.105712652206421,-0.2746581733226776,0.8544921278953552,66.66667175292969,65419.0,1.0
1040.1697667,-96820.6953125,49771.078125,-235650.078125,-230666.34375,-95265.9140625,-238744.0,-226417.640625,-332509.21875,0.068115234375,1.002197265625,0.099853515625,-2.075195074081421,-0.3662109076976776,0.7629393935203552,66.66667175292969,65420.0,1.0
1040.1722583,-91190.46875,52467.94921875,-234941.515625,-230996.34375,-93670.7109375,-239361.796875,-226727.609375,-332925.75,0.068603515625,1.00244140625,0.102294921875,-2.075195074081421,-0.1831054538488388,0.6408690810203552,66.66667175292969,65421.0,1.0
1040.1747741,-71213.9140625,66907.0,-233219.546875,-233009.890625,-73631.921875,-239514.6875,-226830.78125,-334265.96875,0.06982421875,1.002685546875,0.104248046875,-2.136230230331421,-0.2746581733226776,0.6713866591453552,66.66667175292969,65422.0,1.0
1040.1772693,-74456.1640625,66058.171875,-233715.75,-232936.390625,-73002.9453125,-238932.296875,-226552.546875,-334036.03125,0.069091796875,1.00244140625,0.10498046875,-2.075195074081421,-0.2746581733226776,0.7324218153953552,66.66667175292969,65423.0,1.0
1040.1797757,-94694.15625,51874.19921875,-235502.546875,-230931.4375,-92669.625,-238706.71875,-226411.65625,-332686.6875,0.068115234375,1.001708984375,0.102783203125,-1.9836424589157104,-0.3356933295726776,0.8239745497703552,66.66667175292969,65424.0,1.0
1040.1822571,-93902.453125,50997.296875,-235236.65625,-230757.8125,-95739.4140625,-239277.578125,-226692.203125,-332765.625,0.069091796875,1.001953125,0.100830078125,-2.014159917831421,-0.3967284858226776,0.7629393935203552,66.66667175292969,65425.0,1.0
1040.1847645,-73290.2109375,65279.79296875,-233414.265625,-232764.015625,-76051.1875,-239582.015625,-226867.796875,-334147.15625,0.068603515625,1.001220703125,0.1005859375,-1.9531248807907104,-0.2746581733226776,0.6103515028953552,66.66667175292969,65426.0,1.0
1040.1872684,-71745.171875,67673.3984375,-233480.796875,-233174.03125,-70727.8046875,-239047.453125,-226611.734375,-334241.46875,0.06787109375,1.002685546875,0.100830078125,-2.014159917831421,-0.1831054538488388,0.7629393935203552,66.66667175292969,65427.0,1.0
1040.1921895,-91831.25,53825.5078125,-235291.8125,-231255.984375,-89339.5703125,-238685.96875,-226411.015625,-332905.5625,0.070068359375,1.002197265625,0.1044921875,-2.014159917831421,-0.2136230319738388,0.7324218153953552,66.66667175292969,65428.0,1.0
1040.192196,-96134.5,49402.72265625,-235482.875,-230581.859375,-97333.890625,-239176.375,-226644.546875,-332638.3125,0.06591796875,1.003173828125,0.10302734375,-1.9531248807907104,-0.3051757514476776,0.7019042372703552,66.66667175292969,65429.0,1.0
1040.1921986,-76208.1875,62778.36328125,-233677.125,-232451.984375,-79422.3671875,-239616.96875,-226887.109375,-333977.46875,0.067626953125,1.003662109375,0.1044921875,-2.014159917831421,-0.3051757514476776,0.8239745497703552,66.66667175292969,65430.0,1.0
1040.201011,-69802.890625,68615.03125,-233303.859375,-233332.015625,-69443.2109375,-239168.328125,-226675.21875,-334400.1875,0.069580078125,1.00244140625,0.1005859375,-1.9226073026657104,-0.2441406100988388,0.7324218153953552,66.66667175292969,65431.0,1.0
1040.204104,-88383.453125,56103.23828125,-235021.984375,-231626.9375,-85630.1640625,-238703.328125,-226430.421875,-333165.90625,0.068115234375,1.0,0.1005859375,-2.044677495956421,-0.1525878757238388,0.6408690810203552,66.66667175292969,65432.0,1.0
1040.2041101,-97749.8125,48284.95703125,-235663.75,-230495.140625,-98196.5859375,-239082.40625,-226602.4375,-332569.9375,0.06884765625,1.00048828125,0.102294921875,-2.044677495956421,-0.2136230319738388,0.7324218153953552,66.66667175292969,65433.0,1.0
1040.2147565,-80125.375,59989.046875,-233998.8125,-232099.984375,-83495.3046875,-239619.828125,-226890.328125,-333772.34375,0.067138671875,1.001708984375,0.10498046875,-2.014159917831421,-0.2136230319738388,0.6103515028953552,66.66667175292969,65434.0,1.0
1040.2178409,-69016.109375,69153.53125,-233195.046875,-233399.078125,-69497.1171875,-239282.140625,-226738.96875,-334500.75,0.069091796875,1.000732421875,0.10498046875,-1.9836424589157104,-0.2746581733226776,0.6713866591453552,66.66667175292969,65435.0,1.0
1040.2178468,-84732.4296875,59059.83984375,-234710.671875,-232017.734375,-82050.0390625,-238750.796875,-226468.25,-333449.6875,0.0693359375,1.001708984375,0.10546875,-2.014159917831421,-0.2746581733226776,0.6408690810203552,66.66667175292969,65436.0,1.0
1040.2197503,-98249.78125,48576.6015625,-235766.390625,-230498.4375,-97975.75,-238987.71875,-226561.765625,-332559.375,0.0693359375,1.001708984375,0.10400390625,-1.9226073026657104,-0.3662109076976776,0.5187987685203552,66.66667175292969,65437.0,1.0
1040.2291036,-83680.8203125,57591.05859375,-234351.4375,-231734.5,-86937.6484375,-239587.90625,-226875.765625,-333547.78125,0.067138671875,1.001953125,0.103515625,-1.9531248807907104,-0.3356933295726776,0.6103515028953552,66.66667175292969,65438.0,1.0
1040.2291098,-68661.8828125,69100.5078125,-233164.375,-233381.8125,-69725.9140625,-239410.53125,-226805.21875,-334548.3125,0.0673828125,1.001708984375,0.10302734375,-1.9836424589157104,-0.2441406100988388,0.6713866591453552,66.66667175292969,65439.0,1.0
1040.2335241,-80799.4140625,61521.30078125,-234387.203125,-232403.34375,-78352.4375,-238832.421875,-226519.65625,-333739.375,0.0673828125,1.001220703125,0.101806640625,-1.9836424589157104,-0.2441406100988388,0.7019042372703552,66.66667175292969,65440.0,1.0
1040.2360068,-97837.1640625,48838.921875,-235786.234375,-230595.625,-96881.046875,-238905.375,-226528.6875,-332613.09375,0.06640625,1.00244140625,0.10205078125,-1.9531248807907104,-0.2441406100988388,0.7019042372703552,66.66667175292969,65441.0,1.0
1040.2447603,-87717.1015625,54726.1015625,-234707.359375,-231380.0,-90542.1796875,-239531.234375,-226852.421875,-333323.4375,0.06640625,1.00146484375,0.099609375,-1.9531248807907104,-0.2136230319738388,0.6713866591453552,66.66667175292969,65442.0,1.0
1040.2478505,-69516.8828125,68173.625,-233187.0,-233277.75,-71200.0546875,-239531.59375,-226876.65625,-334541.15625,0.06787109375,1.001708984375,0.10205078125,-1.9226073026657104,-0.2746581733226776,0.7934569716453552,66.66667175292969,65443.0,1.0
1040.2478562,-77234.1328125,63852.41015625,-234059.34375,-232761.15625,-75213.7109375,-238937.484375,-226588.046875,-334021.90625,0.07080078125,1.0029296875,0.106689453125,-1.9531248807907104,-0.2746581733226776,0.7324218153953552,66.66667175292969,65444.0,1.0
1040.2585117,-96641.078125,49824.6328125,-235719.90625,-230782.75,-95103.28125,-238840.828125,-226509.546875,-332732.28125,0.070068359375,1.00146484375,0.1044921875,-1.9836424589157104,-0.2441406100988388,0.7324218153953552,66.66667175292969,65445.0,1.0
1040.2615811,-91498.65625,52226.73046875,-235054.171875,-231071.625,-93892.890625,-239450.578125,-226814.6875,-333119.15625,0.06982421875,1.001953125,0.10498046875,-2.044677495956421,-0.2136230319738388,0.7324218153953552,66.66667175292969,65446.0,1.0
1040.261586,-71515.390625,66664.078125,-233331.21875,-233085.515625,-73900.1484375,-239613.65625,-226919.21875,-334460.78125,0.0673828125,1.00341796875,0.10302734375,-2.014159917831421,-0.2746581733226776,0.6408690810203552,66.66667175292969,65447.0,1.0
1040.2722601,-74358.1796875,66094.109375,-233793.796875,-233050.109375,-72912.0234375,-239034.21875,-226640.984375,-334255.875,0.06689453125,1.001220703125,0.10400390625,-2.014159917831421,-0.3356933295726776,0.7324218153953552,66.66667175292969,65448.0,1.0
1040.2772044,-94633.8046875,51913.984375,-235584.171875,-231044.8125,-92497.2421875,-238795.671875,-226496.046875,-332903.21875,0.0673828125,1.002197265625,0.10302734375,-1.9836424589157104,-0.2441406100988388,0.6713866591453552,66.66667175292969,65449.0,1.0
1040.2772092,-94258.7421875,50721.38671875,-235357.625,-230827.28125,-96053.2265625,-239362.515625,-226775.359375,-332953.03125,0.068115234375,1.00146484375,0.103271484375,-1.9836424589157104,-0.2441406100988388,0.7324218153953552,66.66667175292969,65450.0,1.0
1040.2772113,-73639.34375,64972.859375,-233535.15625,-232827.671875,-76509.7578125,-239678.65625,-226957.75,-334335.34375,0.069091796875,1.002197265625,0.10302734375,-1.9836424589157104,-0.1525878757238388,0.6713866591453552,66.66667175292969,65451.0,1.0
1040.2803479,-71652.09375,67768.2578125,-233566.703125,-233278.1875,-70725.84375,-239147.578125,-226704.546875,-334457.5625,0.07080078125,1.00244140625,0.102783203125,-2.014159917831421,-0.1220703050494194,0.6408690810203552,66.66667175292969,65452.0,1.0
1040.280353,-91650.2890625,54045.44921875,-235373.171875,-231373.015625,-89090.9296875,-238782.890625,-226501.59375,-333127.1875,0.070068359375,1.003662109375,0.103271484375,-1.9226073026657104,-0.1831054538488388,0.6103515028953552,66.66667175292969,65453.0,1.0
1040.2885003,-96347.828125,49335.578125,-235601.4375,-230659.640625,-97478.734375,-239267.921875,-226733.25,-332833.21875,0.069091796875,1.001953125,0.103515625,-1.9226073026657104,-0.0915527269244194,0.6408690810203552,66.66667175292969,65454.0,1.0
1040.2978408,-76565.1875,62584.88671875,-233806.5,-232512.421875,-79788.21875,-239714.6875,-226978.9375,-334163.6875,0.06982421875,1.002197265625,0.10546875,-2.075195074081421,-0.2746581733226776,0.6713866591453552,66.66667175292969,65455.0,1.0
1040.2978471,-69749.3359375,68702.828125,-233395.765625,-233427.6875,-69456.6171875,-239271.0625,-226768.65625,-334611.0,0.0703125,1.00244140625,0.105712890625,-2.075195074081421,-0.2441406100988388,0.7324218153953552,66.66667175292969,65456.0,1.0
1040.3065798,-88085.28125,56346.515625,-235097.625,-231745.671875,-85423.546875,-238801.75,-226523.40625,-333389.6875,0.068359375,1.002197265625,0.105224609375,-2.014159917831421,-0.2746581733226776,0.7324218153953552,66.66667175292969,65457.0,1.0
1040.3065879,-97851.2890625,48267.87890625,-235774.796875,-230579.796875,-98277.5859375,-239171.71875,-226691.765625,-332768.5,0.066162109375,1.003662109375,0.105224609375,-1.9226073026657104,-0.3051757514476776,0.7019042372703552,66.66667175292969,65458.0,1.0
1040.309095,-80476.1171875,59794.40625,-234127.734375,-232158.734375,-83849.8046875,-239712.8125,-226980.28125,-333955.8125,0.067138671875,1.00146484375,0.102783203125,-1.9836424589157104,-0.2746581733226776,0.7019042372703552,66.66667175292969,65459.0,1.0
1040.3091017,-69051.0703125,69173.6484375,-233296.078125,-233488.75,-69579.109375,-239386.21875,-226833.375,-334708.09375,0.06640625,1.001953125,0.10107421875,-1.9836424589157104,-0.1525878757238388,0.7324218153953552,66.66667175292969,65460.0,1.0
1040.3272603,-84521.9609375,59277.9921875,-234789.078125,-232134.5,-81818.296875,-238850.03125,-226561.40625,-333673.03125,0.068603515625,1.00146484375,0.10009765625,-2.014159917831421,-0.1831054538488388,0.7934569716453552,66.66667175292969,65461.0,1.0
1040.332189,-98311.5625,48607.26953125,-235869.75,-230590.359375,-97961.9765625,-239079.546875,-226653.5,-332764.46875,0.068359375,1.00341796875,0.1015625,-1.8615721464157104,-0.1831054538488388,0.7629393935203552,66.66667175292969,65462.0,1.0
1040.3321942,-83989.3671875,57382.83203125,-234476.421875,-231792.703125,-87304.9375,-239680.453125,-226969.8125,-333732.9375,0.068115234375,1.001953125,0.1044921875,-1.8615721464157104,-0.0610351525247097,0.7324218153953552,66.66667175292969,65463.0,1.0
1040.3321962,-68624.2421875,69114.3671875,-233250.203125,-233468.90625,-69777.4140625,-239518.796875,-226907.40625,-334757.09375,0.0673828125,1.00390625,0.10205078125,-1.9226073026657104,-0.2136230319738388,0.5493163466453552,66.66667175292969,65464.0,1.0
1040.3353606,-80483.8984375,61787.109375,-234446.203125,-232530.03125,-77947.328125,-238941.234375,-226623.546875,-333972.8125,0.067626953125,1.004150390625,0.102294921875,-2.014159917831421,-0.3051757514476776,0.5798339247703552,66.66667175292969,65465.0,1.0
1040.3353672,-97867.1171875,48854.4765625,-235881.28125,-230695.578125,-96783.6875,-238996.125,-226622.46875,-332824.03125,0.0693359375,1.005126953125,0.103515625,-1.9531248807907104,-0.2136230319738388,0.6713866591453552,66.66667175292969,65466.0,1.0
1040.3372727,-88171.6484375,54515.28125,-234841.921875,-231441.59375,-91088.7265625,-239615.890625,-226937.1875,-333506.90625,0.06640625,1.00439453125,0.104736328125,-1.9836424589157104,-0.1831054538488388,0.7324218153953552,66.66667175292969,65467.0,1.0
1040.3510093,-69832.578125,68155.8359375,-233313.421875,-233348.109375,-71751.9609375,-239612.5,-226955.0625,-334728.375,0.068115234375,1.00244140625,0.1005859375,-2.014159917831421,-0.2136230319738388,0.6408690810203552,66.66667175292969,65468.0,1.0
1040.3559577,-77135.3359375,64376.69140625,-234146.34375,-232864.78125,-75156.046875,-239019.734375,-226667.625,-334231.71875,0.06884765625,1.003173828125,0.102294921875,-1.9836424589157104,-0.1220703050494194,0.5493163466453552,66.66667175292969,65469.0,1.0
1040.3559637,-96566.515625,50448.78515625,-235813.78125,-230883.34375,-94869.390625,-238927.546875,-226593.328125,-332940.34375,0.068359375,1.001708984375,0.102783203125,-1.9836424589157104,-0.2136230319738388,0.6103515028953552,66.66667175292969,65470.0,1.0
1040.3559658,-91409.7890625,52580.78125,-235180.15625,-231136.546875,-93838.6171875,-239537.3125,-226899.71875,-333305.28125,0.068115234375,1.0,0.1025390625,-1.9836424589157104,-0.1525878757238388,0.5798339247703552,66.66667175292969,65471.0,1.0
1040.3585127,-71237.25,66914.2421875,-233444.84375,-233155.171875,-73724.546875,-239706.015625,-227005.3125,-334652.03125,0.067138671875,1.002197265625,0.1005859375,-2.014159917831421,-0.3051757514476776,0.6713866591453552,66.66667175292969,65472.0,1.0
1040.3697606,-73920.7109375,66357.7734375,-233870.875,-233157.671875,-72340.7109375,-239131.21875,-226728.421875,-334472.5,0.067138671875,1.002197265625,0.10302734375,-2.014159917831421,-0.3662109076976776,0.7629393935203552,66.66667175292969,65473.0,1.0
1040.3747161,-94313.28125,52049.078125,-235662.5,-231153.265625,-92000.859375,-238884.453125,-226581.34375,-333118.0625,0.067626953125,1.002197265625,0.103515625,-2.075195074081421,-0.3356933295726776,0.7019042372703552,66.66667175292969,65474.0,1.0
1040.3747224,-94272.421875,50563.4921875,-235474.65625,-230896.921875,-96016.84375,-239447.0,-226859.3125,-333142.21875,0.0693359375,1.00146484375,0.1044921875,-1.9531248807907104,-0.3051757514476776,0.6408690810203552,66.66667175292969,65475.0,1.0
1040.3747249,-73670.015625,64773.66015625,-233652.1875,-232891.234375,-76556.25,-239769.671875,-227042.5,-334522.5625,0.06982421875,1.000732421875,0.1044921875,-2.014159917831421,-0.1525878757238388,0.7019042372703552,66.66667175292969,65476.0,1.0
1040.3822629,-71355.1796875,67737.4140625,-233647.09375,-233380.5625,-70420.6953125,-239246.296875,-226791.625,-334671.6875,0.0693359375,1.000732421875,0.10205078125,-2.014159917831421,-0.2136230319738388,0.7629393935203552,66.66667175292969,65477.0,1.0
1040.3847714,-91289.0859375,54001.01171875,-235445.6875,-231487.546875,-88725.609375,-238874.890625,-226588.9375,-333347.75,0.068359375,1.002685546875,0.102294921875,-2.014159917831421,-0.1831054538488388,0.7019042372703552,66.66667175292969,65478.0,1.0
1040.3872659,-96603.171875,48915.36328125,-235711.3125,-230738.5,-97683.4765625,-239355.90625,-226819.796875,-333029.46875,0.068359375,1.001708984375,0.103271484375,-1.9226073026657104,-0.3051757514476776,0.6103515028953552,66.66667175292969,65479.0,1.0
1040.3897716,-77132.390625,62220.375,-233924.703125,-232571.875,-80393.2421875,-239802.125,-227062.984375,-334348.21875,0.06884765625,1.0009765625,0.103515625,-1.9531248807907104,-0.2136230319738388,0.5493163466453552,66.66667175292969,65480.0,1.0
1040.3960081,-69853.765625,68819.953125,-233481.953125,-233519.0625,-69740.7578125,-239356.96875,-226853.5,-334817.25,0.06787109375,1.00244140625,0.10107421875,-1.8920897245407104,-0.1525878757238388,0.6713866591453552,66.66667175292969,65481.0,1.0
1040.4103203,-87939.453125,56833.60546875,-235168.96875,-231860.640625,-85213.8828125,-238892.953125,-226610.671875,-333610.625,0.067138671875,1.003662109375,0.10302734375,-1.9836424589157104,-0.1831054538488388,0.5187987685203552,66.66667175292969,65482.0,1.0
1040.4103284,-97829.03125,48656.890625,-235876.0,-230662.6875,-98185.4921875,-239256.390625,-226775.890625,-332967.15625,0.067626953125,1.002685546875,0.10205078125,-1.9226073026657104,-0.1525878757238388,0.6713866591453552,66.66667175292969,65483.0,1.0
1040.4122584,-80425.515625,59875.23046875,-234248.96875,-232215.953125,-83829.234375,-239797.9375,-227064.59375,-334138.65625,0.06787109375,1.00439453125,0.104248046875,-1.9836424589157104,-0.2746581733226776,0.7019042372703552,66.66667175292969,65484.0,1.0
1040.4153499,-68756.828125,69286.65625,-233383.421875,-233576.1875,-69217.3671875,-239485.0,-226920.828125,-334912.46875,0.067626953125,1.00244140625,0.103271484375,-1.8920897245407104,-0.2136230319738388,0.7019042372703552,66.66667175292969,65485.0,1.0
1040.4153574,-84127.140625,59328.7734375,-234851.3125,-232252.25,-81269.515625,-238945.796875,-226649.46875,-333895.90625,0.066650390625,1.00244140625,0.104248046875,-2.014159917831421,-0.2136230319738388,0.6713866591453552,66.66667175292969,65486.0,1.0
1040.4235099,-98419.1171875,48260.3671875,-235972.109375,-230671.984375,-97945.703125,-239157.515625,-226732.0,-332959.8125,0.06982421875,1.001220703125,0.103515625,-2.075195074081421,-0.1831054538488388,0.7019042372703552,66.66667175292969,65487.0,1.0
1040.4279133,-84646.4140625,56936.2421875,-234605.984375,-231846.78125,-87911.7421875,-239762.25,-227047.59375,-333911.03125,0.06884765625,1.0009765625,0.102783203125,-1.9531248807907104,-0.2746581733226776,0.7019042372703552,66.66667175292969,65488.0,1.0
1040.4279201,-69040.609375,68985.0,-233364.5625,-233541.140625,-70325.2109375,-239597.84375,-226983.9375,-334947.0,0.0673828125,1.00146484375,0.1044921875,-1.9836424589157104,-0.1220703050494194,0.7324218153953552,66.66667175292969,65489.0,1.0
1040.4384979,-80400.9296875,62187.29296875,-234531.234375,-232632.046875,-78025.828125,-239020.53125,-226700.25,-334182.65625,0.0673828125,1.00244140625,0.103515625,-2.014159917831421,-0.2441406100988388,0.7019042372703552,66.66667175292969,65490.0,1.0
1040.4415872,-97784.5078125,49353.37109375,-235969.796875,-230790.171875,-96692.4921875,-239079.546875,-226702.046875,-333028.40625,0.067626953125,1.003662109375,0.10400390625,-1.9836424589157104,-0.2746581733226776,0.7019042372703552,66.66667175292969,65491.0,1.0
1040.4415931,-88166.1015625,54705.5390625,-234961.109375,-231503.46875,-91020.421875,-239699.40625,-227020.328125,-333690.90625,0.06884765625,1.004150390625,0.104248046875,-1.9531248807907104,-0.2136230319738388,0.7019042372703552,66.66667175292969,65492.0,1.0
1040.4472692,-69666.7265625,68258.296875,-233420.34375,-233423.84375,-71515.390625,-239709.15625,-227044.65625,-334925.0,0.070068359375,1.00341796875,0.100830078125,-1.8920897245407104,-0.2746581733226776,0.5798339247703552,66.66667175292969,65493.0,1.0
1040.4503556,-76774.3984375,64449.37890625,-234223.40625,-232976.625,-74683.3515625,-239118.4375,-226757.203125,-334452.21875,0.070068359375,1.0029296875,0.10107421875,-1.8615721464157104,-0.1220703050494194,0.6103515028953552,66.66667175292969,65494.0,1.0
1040.450362,-96325.203125,50400.86328125,-235897.734375,-230989.640625,-94525.265625,-239014.015625,-226679.421875,-333154.71875,0.0693359375,1.0029296875,0.103515625,-1.8920897245407104,-0.2746581733226776,0.6408690810203552,66.66667175292969,65495.0,1.0
1040.4535136,-91538.265625,52239.875,-235299.15625,-231204.578125,-93891.1875,-239621.625,-226986.71875,-333494.9375,0.068603515625,1.002685546875,0.105712890625,-1.9836424589157104,-0.3051757514476776,0.7019042372703552,66.66667175292969,65496.0,1.0
1040.4622661,-71311.3671875,66583.5234375,-233555.4375,-233224.375,-73784.453125,-239798.640625,-227096.140625,-334845.34375,0.06884765625,1.003173828125,0.1044921875,-1.9531248807907104,-0.2746581733226776,0.6103515028953552,66.66667175292969,65497.0,1.0
1040.4666118,-73581.5859375,66267.7421875,-233950.625,-233265.765625,-72102.3515625,-239228.140625,-226820.328125,-334691.625,0.068359375,1.002685546875,0.101806640625,-1.9531248807907104,-0.3356933295726776,0.6103515028953552,66.66667175292969,65498.0,1.0
1040.4666179,-93992.1328125,51909.15625,-235744.21875,-231266.09375,-91754.09375,-238974.3125,-226670.75,-333336.9375,0.069580078125,1.00244140625,0.102783203125,-2.044677495956421,-0.2746581733226776,0.7324218153953552,66.66667175292969,65499.0,1.0
1040.4697589,-94657.5,50079.98046875,-235588.46875,-230966.671875,-96374.5546875,-239531.046875,-226944.421875,-333331.40625,0.06982421875,1.001953125,0.10302734375,-2.014159917831421,-0.2746581733226776,0.7324218153953552,66.66667175292969,65500.0,1.0
1040.4772162,-74219.5078125,64420.76953125,-233766.09375,-232952.484375,-77198.9921875,-239859.53125,-227130.921875,-334709.625,0.06787109375,1.000732421875,0.1044921875,-2.014159917831421,-0.2136230319738388,0.7324218153953552,66.66667175292969,65501.0,1.0
1040.4860467,-71383.6953125,67935.8046875,-233728.09375,-233479.984375,-70635.453125,-239335.25,-226882.015625,-334884.3125,0.070556640625,1.00146484375,0.10400390625,-1.8920897245407104,-0.2136230319738388,0.6408690810203552,66.66667175292969,65502.0,1.0
1040.4890796,-91183.140625,54483.18359375,-235524.015625,-231597.703125,-88547.9609375,-238958.9375,-226674.59375,-333564.125,0.06787109375,1.002685546875,0.10546875,-1.9836424589157104,-0.3051757514476776,0.5798339247703552,66.66667175292969,65503.0,1.0
1040.4890845,-96718.328125,49187.16015625,-235827.1875,-230798.21875,-97741.59375,-239427.34375,-226896.0625,-333210.0625,0.068603515625,1.001220703125,0.10205078125,-1.9226073026657104,-0.4272460639476776,0.7019042372703552,66.66667175292969,65504.0,1.0
1040.4910093,-77107.625,62230.30078125,-234043.96875,-232619.0,-80474.328125,-239889.84375,-227149.25,-334526.40625,0.066650390625,1.0009765625,0.1025390625,-1.8615721464157104,-0.2441406100988388,0.7324218153953552,66.66667175292969,65505.0,1.0
1040.4947602,-69536.1015625,68899.34375,-233564.125,-233613.109375,-69375.9765625,-239464.171875,-226949.703125,-335030.21875,0.06640625,1.001708984375,0.105224609375,-1.9836424589157104,-0.2136230319738388,0.7324218153953552,66.66667175292969,65506.0,1.0
1040.5085087,-87540.8828125,56848.08984375,-235236.125,-231979.015625,-84766.3125,-238988.171875,-226703.921875,-333837.0,0.06982421875,1.004150390625,0.102783203125,-1.8920897245407104,-0.1831054538488388,0.6713866591453552,66.66667175292969,65507.0,1.0
1040.5115986,-97948.75,48302.2109375,-235979.359375,-230746.453125,-98222.8671875,-239339.265625,-226863.421875,-333167.34375,0.06982421875,1.00390625,0.1025390625,-1.8615721464157104,-0.2441406100988388,0.5798339247703552,66.66667175292969,65508.0,1.0
1040.5116046,-80979.125,59433.29296875,-234371.828125,-232272.1875,-84376.2265625,-239883.9375,-227153.09375,-334322.46875,0.0673828125,1.00390625,0.10302734375,-2.014159917831421,-0.1220703050494194,0.7019042372703552,66.66667175292969,65509.0,1.0
1040.5135227,-68889.0625,69249.1953125,-233475.34375,-233662.46875,-69525.90625,-239569.578125,-227010.765625,-335117.125,0.067626953125,1.002685546875,0.1025390625,-2.044677495956421,-0.2441406100988388,0.7934569716453552,66.66667175292969,65510.0,1.0
1040.5185201,-83829.0625,59717.3359375,-234921.9375,-232372.234375,-81145.328125,-239032.609375,-226738.96875,-334120.875,0.069580078125,1.002197265625,0.102294921875,-2.044677495956421,-0.1525878757238388,0.7934569716453552,66.66667175292969,65511.0,1.0
1040.5211294,-98252.1953125,48643.30078125,-236060.890625,-230773.28125,-97769.578125,-239240.125,-226819.171875,-333170.375,0.068603515625,1.003662109375,0.102294921875,-2.075195074081421,-0.1525878757238388,0.7629393935203552,66.66667175292969,65512.0,1.0
1040.5303379,-84569.078125,56940.08984375,-234727.296875,-231907.5,-87874.0078125,-239841.296875,-227132.265625,-334094.84375,0.069091796875,1.001708984375,0.10107421875,-2.044677495956421,-0.2441406100988388,0.6713866591453552,66.66667175292969,65513.0,1.0
1040.5303439,-68770.5078125,68957.1015625,-233463.984375,-233623.3125,-70054.84375,-239694.125,-227074.953125,-335148.96875,0.068359375,1.00244140625,0.10302734375,-2.014159917831421,-0.2441406100988388,0.7019042372703552,66.66667175292969,65514.0,1.0
1040.532266,-80000.3828125,62116.39453125,-234605.078125,-232749.171875,-77533.109375,-239113.96875,-226790.109375,-334406.53125,0.068115234375,1.002685546875,0.101318359375,-2.014159917831421,-0.3356933295726776,0.7629393935203552,66.66667175292969,65515.0,1.0
1040.5360107,-97696.53125,49016.484375,-236066.0,-230890.671875,-96485.9609375,-239157.0625,-226785.453125,-333237.625,0.068359375,1.003662109375,0.10498046875,-1.9836424589157104,-0.2136230319738388,0.7324218153953552,66.66667175292969,65516.0,1.0
1040.550341,-88660.8828125,54143.97265625,-235086.265625,-231565.15625,-91465.6640625,-239777.359375,-227102.40625,-333875.34375,0.06591796875,1.00341796875,0.10546875,-2.014159917831421,-0.3662109076976776,0.7019042372703552,66.66667175292969,65517.0,1.0
1040.5503473,-69954.34375,67978.6328125,-233520.390625,-233498.84375,-71945.265625,-239793.453125,-227131.90625,-335122.125,0.06884765625,1.003173828125,0.1044921875,-1.9226073026657104,-0.3356933295726776,0.7019042372703552,66.66667175292969,65518.0,1.0
1040.5522466,-76495.8125,64750.94921875,-234292.515625,-233096.25,-74583.9296875,-239204.53125,-226847.953125,-334679.03125,0.069580078125,1.0029296875,0.104736328125,-1.9836424589157104,-0.1831054538488388,0.7019042372703552,66.66667175292969,65519.0,1.0
1040.5553516,-96157.4765625,50725.140625,-235984.984375,-231102.390625,-94346.8046875,-239093.5,-226762.84375,-333372.4375,0.069580078125,1.00244140625,0.100830078125,-1.8615721464157104,-0.2441406100988388,0.6713866591453552,66.66667175292969,65520.0,1.0
1040.5553579,-91835.453125,52267.6796875,-235419.578125,-231269.484375,-94111.3125,-239693.953125,-227063.421875,-333679.46875,0.06982421875,1.0029296875,0.1025390625,-1.9531248807907104,-0.1220703050494194,0.6713866591453552,66.66667175292969,65521.0,1.0
1040.5572501,-71537.4765625,66631.8046875,-233665.5,-233293.578125,-74003.234375,-239886.265625,-227181.265625,-335037.71875,0.069091796875,1.002197265625,0.10595703125,-2.075195074081421,-0.1831054538488388,0.6103515028953552,66.66667175292969,65522.0,1.0
1040.5711227,-73371.0390625,66617.5,-234025.640625,-233377.25,-71926.484375,-239318.703125,-226907.234375,-334912.28125,0.06689453125,1.004150390625,0.10595703125,-1.9836424589157104,-0.2441406100988388,0.7019042372703552,66.66667175292969,65523.0,1.0
1040.578429,-93763.4296875,52334.375,-235824.0625,-231380.984375,-91481.671875,-239051.296875,-226750.953125,-333556.15625,0.06982421875,1.001708984375,0.103271484375,-2.075195074081421,-0.2746581733226776,0.7019042372703552,66.66667175292969,65524.0,1.0
1040.5784352,-94588.203125,50264.24609375,-235706.84375,-231039.0,-96266.1953125,-239601.40625,-227021.5,-333521.46875,0.069091796875,1.0,0.101318359375,-1.9531248807907104,-0.2441406100988388,0.6408690810203552,66.66667175292969,65525.0,1.0
1040.5784377,-74009.578125,64369.36328125,-233879.015625,-233016.046875,-77038.328125,-239945.71875,-227216.046875,-334898.71875,0.06787109375,1.001953125,0.100830078125,-1.9226073026657104,-0.2441406100988388,0.6713866591453552,66.66667175292969,65526.0,1.0
1040.581595,-70858.25,67931.78125,-233794.875,-233589.953125,-70047.1484375,-239437.890625,-226972.3125,-335106.125,0.06884765625,1.003662109375,0.09912109375,-2.014159917831421,-0.1831054538488388,0.6408690810203552,66.66667175292969,65527.0,1.0
1040.5816006,-90662.1640625,54351.84375,-235588.46875,-231725.375,-88004.3671875,-239043.515625,-226759.4375,-333793.1875,0.068115234375,1.002685546875,0.10009765625,-2.014159917831421,-0.1525878757238388,0.6713866591453552,66.66667175292969,65528.0,1.0
1040.5833558,-96891.5078125,48647.14453125,-235933.484375,-230885.484375,-97841.9921875,-239500.46875,-226974.109375,-333409.28125,0.06689453125,1.00244140625,0.1025390625,-1.9836424589157104,-0.1525878757238388,0.7324218153953552,66.66667175292969,65529.0,1.0
1040.591027,-77725.8671875,61714.77734375,-234163.765625,-232683.8125,-80985.2890625,-239968.96875,-227228.828125,-334712.5625,0.066650390625,1.0029296875,0.10302734375,-2.044677495956421,-0.1525878757238388,0.8239745497703552,66.66667175292969,65530.0,1.0
1040.6047574,-69656.890625,68852.5859375,-233651.46875,-233706.90625,-69633.8203125,-239541.515625,-227029.265625,-335236.65625,0.06884765625,1.00341796875,0.1015625,-2.044677495956421,-0.2441406100988388,0.7324218153953552,66.66667175292969,65531.0,1.0
1040.6096922,-87344.2734375,57202.49609375,-235309.703125,-232096.5,-84580.703125,-239062.5625,-226779.734375,-334056.3125,0.0693359375,1.00146484375,0.101806640625,-2.044677495956421,-0.2746581733226776,0.6713866591453552,66.66667175292969,65532.0,1.0
1040.6096982,-97976.1015625,48544.50390625,-236085.390625,-230830.40625,-98179.328125,-239404.890625,-226932.796875,-333361.71875,0.068603515625,1.003173828125,0.100341796875,-2.105712652206421,-0.3051757514476776,0.6713866591453552,66.66667175292969,65533.0,1.0
1040.6097006,-81097.8515625,59362.30078125,-234496.09375,-232327.703125,-84402.9609375,-239960.734375,-227227.84375,-334502.28125,0.06884765625,1.003173828125,0.102783203125,-2.105712652206421,-0.3051757514476776,0.6103515028953552,66.66667175292969,65534.0,1.0
1040.6129146,-68709.3515625,69214.5078125,-233569.578125,-233750.890625,-69277.625,-239671.15625,-227096.953125,-335324.1875,0.068603515625,1.003662109375,0.103271484375,-2.075195074081421,-0.2136230319738388,0.5798339247703552,66.66667175292969,65535.0,1.0
1040.6129199,-83429.859375,59698.47265625,-234995.703125,-232492.21875,-80768.296875,-239122.90625,-226822.5625,-334346.875,0.066650390625,1.004150390625,0.1025390625,-1.9531248807907104,-0.1525878757238388,0.5798339247703552,66.66667175292969,65536.0,1.0
1040.6211155,-98281.609375,48306.859375,-236165.765625,-230867.421875,-97776.1875,-239313.25,-226893.546875,-333374.5,0.069091796875,1.00146484375,0.103515625,-1.9531248807907104,-0.2441406100988388,0.6408690810203552,66.66667175292969,65537.0,1.0
1040.630336,-85282.4609375,56439.58984375,-234857.484375,-231964.265625,-88454.4375,-239920.234375,-227208.53125,-334276.875,0.0693359375,1.002685546875,0.1015625,-1.9531248807907104,-0.3356933295726776,0.7019042372703552,66.66667175292969,65538.0,1.0
1040.6303426,-69116.0703125,68819.4140625,-233559.734375,-233701.71875,-70511.171875,-239783.171875,-227159.0,-335348.96875,0.06982421875,1.00341796875,0.102294921875,-1.9836424589157104,-0.3051757514476776,0.6408690810203552,66.66667175292969,65539.0,1.0
1040.6328412,-79739.765625,62561.375,-234670.96875,-232869.34375,-77475.3515625,-239200.515625,-226873.703125,-334632.53125,0.068115234375,1.002685546875,0.1015625,-1.8920897245407104,-0.3051757514476776,0.6408690810203552,66.66667175292969,65540.0,1.0
1040.6328462,-97585.6640625,49469.6875,-236160.40625,-230993.578125,-96427.125,-239229.5625,-226859.046875,-333447.4375,0.06787109375,1.00244140625,0.1044921875,-1.9226073026657104,-0.2136230319738388,0.7019042372703552,66.66667175292969,65541.0,1.0
1040.6435061,-88828.4296875,54250.81640625,-235214.84375,-231623.625,-91508.7578125,-239851.03125,-227176.171875,-334057.03125,0.068603515625,1.00048828125,0.105224609375,-1.9836424589157104,-0.3051757514476776,0.6408690810203552,66.66667175292969,65542.0,1.0
1040.6478349,-69942.8125,68000.1796875,-233630.015625,-233571.8125,-71791.484375,-239894.765625,-227219.703125,-335319.90625,0.068115234375,1.0009765625,0.10205078125,-2.075195074081421,-0.2441406100988388,0.6408690810203552,66.66667175292969,65543.0,1.0
1040.6478403,-76154.9921875,64773.9296875,-234367.078125,-233207.5625,-74232.7421875,-239303.6875,-226932.890625,-334900.3125,0.066650390625,1.00146484375,0.103271484375,-1.9531248807907104,-0.3051757514476776,0.6713866591453552,66.66667175292969,65544.0,1.0
1040.6615895,-95963.5546875,50626.97265625,-236073.421875,-231206.359375,-94143.046875,-239164.296875,-226835.890625,-333582.375,0.068115234375,1.002685546875,0.10009765625,-1.9226073026657104,-0.3051757514476776,0.6713866591453552,66.66667175292969,65545.0,1.0
1040.6615959,-92100.7265625,51856.85546875,-235546.09375,-231331.265625,-94322.0390625,-239765.296875,-227136.734375,-333862.75,0.06982421875,1.003173828125,0.1005859375,-1.9531248807907104,-0.3051757514476776,0.6713866591453552,66.66667175292969,65546.0,1.0
1040.6641017,-71703.234375,66233.40625,-233777.625,-233358.296875,-74221.1171875,-239978.984375,-227266.296875,-335229.0625,0.070068359375,1.002685546875,0.099609375,-2.014159917831421,-0.3051757514476776,0.6103515028953552,66.66667175292969,65547.0,1.0
1040.6641078,-73104.78125,66540.7890625,-234098.140625,-233484.90625,-71688.125,-239413.21875,-226993.859375,-335131.875,0.06884765625,1.0029296875,0.101806640625,-1.9531248807907104,-0.2441406100988388,0.7019042372703552,66.66667175292969,65548.0,1.0
1040.6660025,-93540.8046875,52243.00390625,-235905.859375,-231495.59375,-91181.3515625,-239129.53125,-226829.171875,-333775.03125,0.06689453125,1.001953125,0.103515625,-1.8615721464157104,-0.2746581733226776,0.5798339247703552,66.66667175292969,65549.0,1.0
1040.6822462,-95096.75,49776.98046875,-235830.9375,-231109.0,-96681.7578125,-239675.171875,-227095.703125,-333709.6875,0.068115234375,1.00146484375,0.101806640625,-1.9531248807907104,-0.3051757514476776,0.6713866591453552,66.66667175292969,65550.0,1.0
1040.6853375,-74697.921875,63985.984375,-233997.46875,-233078.015625,-77741.4296875,-240037.90625,-227302.140625,-335087.90625,0.068115234375,1.001953125,0.10009765625,-1.9836424589157104,-0.3051757514476776,0.6103515028953552,66.66667175292969,65551.0,1.0
1040.6853436,-70969.203125,68046.4921875,-233869.265625,-233696.078125,-70266.109375,-239534.09375,-227063.421875,-335326.96875,0.069091796875,1.00244140625,0.10205078125,-1.9531248807907104,-0.3051757514476776,0.6408690810203552,66.66667175292969,65552.0,1.0
1040.6872651,-90610.21875,54680.41796875,-235659.015625,-231849.03125,-87898.7734375,-239128.265625,-226842.5,-334019.9375,0.068603515625,1.001708984375,0.10302734375,-1.9531248807907104,-0.2441406100988388,0.6408690810203552,66.66667175292969,65553.0,1.0
1040.6897275,-97267.8203125,48686.66015625,-236051.328125,-230969.609375,-98117.8125,-239575.125,-227051.890625,-333607.125,0.067138671875,1.000732421875,0.104736328125,-1.9836424589157104,-0.1525878757238388,0.6408690810203552,66.66667175292969,65554.0,1.0
1040.6921125,-78267.765625,61573.515625,-234290.109375,-232742.375,-81544.890625,-240056.765625,-227311.890625,-334897.8125,0.06689453125,1.00244140625,0.103515625,-1.9531248807907104,-0.2746581733226776,0.6713866591453552,66.66667175292969,65555.0,1.0
1040.698504,-69770.6171875,68983.390625,-233735.515625,-233802.75,-69821.3984375,-239649.0625,-227119.9375,-335450.4375,0.067626953125,1.002197265625,0.10302734375,-1.9531248807907104,-0.2441406100988388,0.6408690810203552,66.66667175292969,65556.0,1.0
1040.7015952,-87221.515625,57518.55078125,-235379.890625,-232220.515625,-84467.25,-239153.3125,-226864.9375,-334284.75,0.06787109375,1.003662109375,0.103271484375,-1.8920897245407104,-0.3051757514476776,0.6408690810203552,66.66667175292969,65557.0,1.0
1040.7016008,-98257.46875,48601.546875,-236197.59375,-230919.90625,-98398.28125,-239480.71875,-227010.234375,-333563.5,0.068115234375,1.00244140625,0.10302734375,-1.9531248807907104,-0.2136230319738388,0.6713866591453552,66.66667175292969,65558.0,1.0
