Time,FZ,C3,CZ,C4,PZ,PO7,OZ,PO8,AccX,AccY,AccZ,Gyro1,Gyro2,Gyro3,Battery,Counter,Validation
21236.3468906,321510.09375,321666.65625,322322.8125,321856.90625,321766.96875,321937.8125,322098.125,322218.75,0.2783203125,0.942626953125,0.221923828125,-1.8005369901657104,-0.0915527269244194,0.7019042372703552,66.66667175292969,21193.0,1.0
21236.3468968,319301.125,319457.0625,320113.46875,319647.9375,319558.0625,319728.125,319888.4375,320008.96875,0.28076171875,0.9443359375,0.22265625,-1.8615721464157104,-0.1220703050494194,0.7019042372703552,66.66667175292969,21194.0,1.0
21236.3488484,315542.625,315697.65625,316353.90625,315889.0,315799.21875,315967.9375,316128.96875,316248.9375,0.28076171875,0.9423828125,0.220458984375,-1.8615721464157104,-0.2136230319738388,0.6713866591453552,66.66667175292969,21195.0,1.0
21236.3650258,317467.5625,317623.59375,318279.65625,317814.1875,317724.34375,317893.59375,318054.53125,318174.6875,0.28076171875,0.94189453125,0.22314453125,-1.9531248807907104,-0.1525878757238388,0.7019042372703552,66.66667175292969,21196.0,1.0
21236.3687082,321285.15625,321441.78125,322098.3125,321632.15625,321542.46875,321712.78125,321872.90625,321993.625,0.279052734375,0.943359375,0.2236328125,-1.8310545682907104,-0.3051757514476776,0.6713866591453552,66.66667175292969,21197.0,1.0
21236.3687164,320097.65625,320253.75,320909.8125,320444.46875,320354.6875,320524.5625,320685.0625,320805.46875,0.279296875,0.94189453125,0.21875,-1.8615721464157104,-0.3051757514476776,0.7324218153953552,66.66667175292969,21198.0,1.0
21236.3687208,315867.1875,316022.75,316678.375,316213.53125,316124.21875,316292.5625,316453.40625,316573.5,0.279052734375,0.941650390625,0.220458984375,-1.8310545682907104,-0.1831054538488388,0.7324218153953552,66.66667175292969,21199.0,1.0
21236.3712714,316778.25,316933.71875,317589.6875,317124.59375,317035.1875,317203.8125,317364.3125,317485.0,0.2802734375,0.94287109375,0.219970703125,-1.8920897245407104,-0.1525878757238388,0.6103515028953552,66.66667175292969,21200.0,1.0
21236.3738523,320893.09375,321049.46875,321705.8125,321240.4375,321150.3125,321320.65625,321480.59375,321601.46875,0.28125,0.94384765625,0.220703125,-1.9836424589157104,-0.1220703050494194,0.6713866591453552,66.66667175292969,21201.0,1.0
21236.3825245,320769.375,320925.8125,321582.4375,321116.4375,321026.59375,321196.8125,321356.9375,321477.5625,0.279052734375,0.944091796875,0.220947265625,-1.8615721464157104,-0.1525878757238388,0.7019042372703552,66.66667175292969,21202.0,1.0
21236.3893572,316395.21875,316550.59375,317206.84375,316741.59375,316652.1875,316820.53125,316981.1875,317101.53125,0.28125,0.943359375,0.221923828125,-1.8920897245407104,-0.2136230319738388,0.7629393935203552,66.66667175292969,21203.0,1.0
21236.3893656,316223.90625,316379.125,317035.1875,316569.90625,316480.5,316649.125,316809.78125,316930.21875,0.282470703125,0.943359375,0.22119140625,-1.9531248807907104,-0.1525878757238388,0.7629393935203552,66.66667175292969,21204.0,1.0
21236.3956159,320362.90625,320518.9375,321175.4375,320709.5625,320619.6875,320790.03125,320950.15625,321070.75,0.279296875,0.942138671875,0.22216796875,-1.9226073026657104,-0.1831054538488388,0.7324218153953552,66.66667175292969,21205.0,1.0
21236.3956244,321269.15625,321425.34375,322081.78125,321616.40625,321526.375,321696.96875,321857.09375,321977.34375,0.2802734375,0.942138671875,0.219482421875,-1.9531248807907104,-0.1831054538488388,0.7934569716453552,66.66667175292969,21206.0,1.0
21236.4068991,317082.75,317237.875,317894.03125,317429.375,317339.4375,317508.59375,317669.1875,317789.875,0.28076171875,0.942138671875,0.221435546875,-2.075195074081421,-0.0610351525247097,0.7324218153953552,66.66667175292969,21207.0,1.0
21236.4069074,315814.59375,315969.46875,316625.53125,316160.625,316071.21875,316239.5625,316400.40625,316521.09375,0.28076171875,0.9423828125,0.22119140625,-1.9531248807907104,-0.0610351525247097,0.7019042372703552,66.66667175292969,21208.0,1.0
21236.4131065,319704.53125,319860.8125,320517.15625,320051.25,319962.03125,320131.625,320291.9375,320412.625,0.280517578125,0.94189453125,0.223388671875,-1.8920897245407104,-0.1220703050494194,0.6103515028953552,66.66667175292969,21209.0,1.0
21236.4131147,321576.4375,321733.15625,322389.40625,321923.34375,321833.84375,322004.25,322164.28125,322284.90625,0.280517578125,0.9404296875,0.22265625,-1.8920897245407104,-0.2441406100988388,0.7934569716453552,66.66667175292969,21210.0,1.0
21236.4193496,317891.09375,318046.65625,318702.8125,318237.34375,318147.9375,318317.09375,318477.5,318597.9375,0.281982421875,0.940673828125,0.222900390625,-1.8615721464157104,-0.3051757514476776,0.7629393935203552,66.66667175292969,21211.0,1.0
21236.4193558,315593.25,315748.28125,316404.0625,315939.15625,315849.9375,316018.1875,316179.125,316299.1875,0.28076171875,0.942138671875,0.223388671875,-1.9226073026657104,-0.2136230319738388,0.8239745497703552,66.66667175292969,21212.0,1.0
21236.4281127,318970.59375,319126.25,319782.75,319317.03125,319227.53125,319397.3125,319557.4375,319677.78125,0.27978515625,0.943115234375,0.220703125,-1.8615721464157104,-0.1525878757238388,0.7934569716453552,66.66667175292969,21213.0,1.0
21236.4281207,321691.34375,321847.96875,322504.9375,322038.40625,321949.09375,322119.3125,322279.0,322399.6875,0.279052734375,0.943603515625,0.2216796875,-1.9226073026657104,-0.1831054538488388,0.7934569716453552,66.66667175292969,21214.0,1.0
21236.4306213,318758.15625,318914.15625,319570.40625,319104.6875,319015.46875,319184.71875,319345.03125,319465.53125,0.277587890625,0.941650390625,0.219970703125,-1.8615721464157104,-0.2441406100988388,0.7629393935203552,66.66667175292969,21215.0,1.0
21236.4306295,315562.03125,315716.875,316372.6875,315907.78125,315818.1875,315986.90625,316147.65625,316268.0,0.2783203125,0.943603515625,0.221923828125,-1.8615721464157104,-0.1831054538488388,0.7324218153953552,66.66667175292969,21216.0,1.0
21236.4437743,318201.25,318356.53125,319013.0625,318547.5,318458.0,318627.4375,318787.65625,318908.53125,0.27880859375,0.94384765625,0.221435546875,-1.8920897245407104,-0.1525878757238388,0.6713866591453552,66.66667175292969,21217.0,1.0
21236.4562127,321615.96875,321772.34375,322429.125,321962.9375,321873.09375,322043.6875,322203.625,322324.34375,0.279296875,0.942138671875,0.221435546875,-1.8920897245407104,-0.1525878757238388,0.7324218153953552,66.66667175292969,21218.0,1.0
21236.4562204,319618.4375,319774.34375,320430.78125,319965.15625,319875.375,320045.0625,320205.65625,320325.5625,0.279052734375,0.94189453125,0.22119140625,-1.8615721464157104,-0.1525878757238388,0.7019042372703552,66.66667175292969,21219.0,1.0
21236.4562233,315735.46875,315890.4375,316546.75,316081.5625,315992.0,316160.4375,316321.0,316441.8125,0.279541015625,0.9423828125,0.221435546875,-1.9531248807907104,-0.2136230319738388,0.7934569716453552,66.66667175292969,21220.0,1.0
21236.459356,317459.15625,317614.46875,318270.78125,317805.25,317715.9375,317884.8125,318045.3125,318166.28125,0.280029296875,0.943359375,0.22119140625,-1.9531248807907104,-0.2441406100988388,0.6713866591453552,66.66667175292969,21221.0,1.0
21236.4593626,321360.625,321517.25,322173.6875,321707.875,321618.375,321788.4375,321948.71875,322069.34375,0.279052734375,0.94287109375,0.220703125,-2.014159917831421,-0.2136230319738388,0.7019042372703552,66.66667175292969,21222.0,1.0
21236.4612805,320396.96875,320553.4375,321209.59375,320743.96875,320654.21875,320824.4375,320985.0,321105.1875,0.279541015625,0.942138671875,0.22119140625,-1.9836424589157104,-0.1525878757238388,0.7324218153953552,66.66667175292969,21223.0,1.0
21236.4638594,316110.53125,316265.5625,316921.71875,316456.625,316366.875,316535.9375,316697.15625,316816.78125,0.28076171875,0.942626953125,0.220947265625,-1.9226073026657104,-0.1220703050494194,0.7629393935203552,66.66667175292969,21224.0,1.0
21236.4725241,316797.90625,316953.21875,317609.4375,317144.34375,317054.3125,317223.65625,317384.59375,317504.40625,0.281494140625,0.94384765625,0.22216796875,-1.7700194120407104,-0.1831054538488388,0.7019042372703552,66.66667175292969,21225.0,1.0
21236.4756044,320940.9375,321097.65625,321754.375,321288.5625,321198.4375,321368.46875,321529.0625,321649.125,0.279052734375,0.942626953125,0.224609375,-1.8615721464157104,-0.2746581733226776,0.7324218153953552,66.66667175292969,21226.0,1.0
21236.4756131,321038.375,321195.3125,321852.09375,321385.90625,321295.875,321466.03125,321626.5,321746.75,0.280517578125,0.941162109375,0.2216796875,-1.8920897245407104,-0.2136230319738388,0.6713866591453552,66.66667175292969,21227.0,1.0
21236.478874,316673.625,316828.9375,317485.1875,317020.0,316930.21875,317099.03125,317260.125,317380.125,0.279296875,0.942138671875,0.2197265625,-1.9531248807907104,-0.1831054538488388,0.7629393935203552,66.66667175292969,21228.0,1.0
21236.4875201,316261.09375,316416.21875,317071.9375,316607.46875,316517.625,316686.25,316847.09375,316967.59375,0.279541015625,0.94287109375,0.219482421875,-1.9531248807907104,-0.2136230319738388,0.7324218153953552,66.66667175292969,21229.0,1.0
21236.4918945,320369.90625,320525.8125,321182.15625,320716.4375,320626.5,320796.625,320957.125,321077.71875,0.279541015625,0.9423828125,0.21923828125,-1.9226073026657104,-0.1220703050494194,0.7019042372703552,66.66667175292969,21230.0,1.0
21236.4919022,321495.25,321652.0,322308.0625,321841.96875,321752.40625,321923.15625,322083.125,322203.71875,0.2822265625,0.94189453125,0.220947265625,-1.8615721464157104,-0.1525878757238388,0.6408690810203552,66.66667175292969,21231.0,1.0
21236.5000164,317395.0625,317550.34375,318206.59375,317741.0625,317652.09375,317820.90625,317981.28125,318102.09375,0.27978515625,0.941650390625,0.221923828125,-1.9531248807907104,-0.1831054538488388,0.7629393935203552,66.66667175292969,21232.0,1.0
21236.5025307,315898.90625,316053.875,316710.1875,316244.9375,316155.78125,316324.125,316485.15625,316605.6875,0.2783203125,0.942626953125,0.220458984375,-1.8615721464157104,-0.0915527269244194,0.6713866591453552,66.66667175292969,21233.0,1.0
21236.5062695,319703.53125,319859.28125,320516.53125,320050.4375,319960.40625,320130.625,320291.21875,320411.75,0.279296875,0.941650390625,0.22119140625,-1.8920897245407104,-0.1525878757238388,0.6103515028953552,66.66667175292969,21234.0,1.0
21236.5150201,321772.0625,321928.25,322585.65625,322119.3125,322029.46875,322200.3125,322360.28125,322480.78125,0.279052734375,0.9423828125,0.219970703125,-1.9531248807907104,-0.2136230319738388,0.6713866591453552,66.66667175292969,21235.0,1.0
21236.5193613,318235.5625,318391.0625,319048.0,318582.03125,318493.0625,318662.3125,318822.71875,318942.96875,0.279052734375,0.943115234375,0.22021484375,-1.8615721464157104,-0.2136230319738388,0.7019042372703552,66.66667175292969,21236.0,1.0
21236.5193685,315735.21875,315890.4375,316546.59375,316081.3125,315992.625,316160.78125,316321.625,316441.8125,0.28076171875,0.941162109375,0.219970703125,-1.8615721464157104,-0.1525878757238388,0.7019042372703552,66.66667175292969,21237.0,1.0
21236.5225302,318976.75,319132.9375,319789.1875,319323.375,319234.4375,319403.84375,319564.34375,319684.5,0.27783203125,0.941650390625,0.220947265625,-1.9836424589157104,-0.1220703050494194,0.7019042372703552,66.66667175292969,21238.0,1.0
21236.5318935,321863.78125,322020.53125,322677.5,322211.0625,322121.5625,322291.875,322452.0,322572.6875,0.278564453125,0.941650390625,0.22314453125,-1.9226073026657104,-0.2136230319738388,0.7629393935203552,66.66667175292969,21239.0,1.0
21236.5319022,319124.90625,319280.90625,319937.4375,319471.53125,319381.84375,319551.8125,319712.21875,319832.46875,0.279541015625,0.943359375,0.22119140625,-1.8615721464157104,-0.1525878757238388,0.7934569716453552,66.66667175292969,21240.0,1.0
21236.5381125,315757.3125,315912.40625,316568.65625,316103.65625,316013.71875,316182.53125,316343.90625,316463.875,0.280517578125,0.94384765625,0.220947265625,-1.9836424589157104,-0.1831054538488388,0.7629393935203552,66.66667175292969,21241.0,1.0
21236.5381209,318204.1875,318359.75,319016.71875,318551.1875,318461.3125,318630.75,318791.78125,318912.125,0.28076171875,0.943115234375,0.220703125,-1.9226073026657104,-0.1525878757238388,0.7324218153953552,66.66667175292969,21242.0,1.0
21236.5400151,321748.375,321904.84375,322561.875,322095.90625,322005.875,322176.625,322337.46875,322457.375,0.279541015625,0.943115234375,0.224853515625,-1.8615721464157104,-0.2441406100988388,0.7019042372703552,66.66667175292969,21243.0,1.0
21236.5512709,319979.8125,320136.09375,320792.78125,320327.25,320237.40625,320407.1875,320568.1875,320688.375,0.281494140625,0.94189453125,0.2236328125,-2.014159917831421,-0.1831054538488388,0.7629393935203552,66.66667175292969,21244.0,1.0
21236.5554647,315984.84375,316140.21875,316796.28125,316331.65625,316241.96875,316410.3125,316571.625,316691.96875,0.279541015625,0.943359375,0.2216796875,-1.9531248807907104,-0.2136230319738388,0.7629393935203552,66.66667175292969,21245.0,1.0
21236.555473,317492.15625,317648.0625,318304.15625,317839.0625,317749.46875,317918.625,318079.65625,318199.71875,0.279541015625,0.94482421875,0.220703125,-2.014159917831421,-0.1525878757238388,0.7324218153953552,66.66667175292969,21246.0,1.0
21236.5631023,321468.15625,321625.625,322281.875,321815.5,321725.75,321896.15625,322056.8125,322177.0,0.27978515625,0.943359375,0.221923828125,-2.044677495956421,-0.3356933295726776,0.7629393935203552,66.66667175292969,21247.0,1.0
21236.5631087,320737.1875,320894.34375,321550.4375,321084.25,320994.5,321164.53125,321325.21875,321445.28125,0.279541015625,0.94140625,0.2236328125,-2.105712652206421,-0.2136230319738388,0.9155272841453552,66.66667175292969,21248.0,1.0
21236.5650164,316408.1875,316563.9375,317220.0,316754.46875,316665.03125,316833.84375,316994.78125,317114.59375,0.28173828125,0.940673828125,0.221435546875,-2.105712652206421,-0.1831054538488388,0.8850097060203552,66.66667175292969,21249.0,1.0
21236.5688505,316861.65625,317017.3125,317673.375,317208.09375,317118.78125,317287.40625,317448.0625,317567.96875,0.28271484375,0.941650390625,0.221435546875,-2.105712652206421,-0.1831054538488388,0.8544921278953552,66.66667175292969,21250.0,1.0
21236.5775269,321019.34375,321176.0625,321832.3125,321366.6875,321276.84375,321447.0625,321607.375,321727.71875,0.281982421875,0.943359375,0.219970703125,-2.136230230331421,-0.1831054538488388,0.9155272841453552,66.66667175292969,21251.0,1.0
21236.5818866,321348.71875,321505.28125,322161.875,321696.0625,321606.125,321776.71875,321936.9375,322057.4375,0.28125,0.94482421875,0.221435546875,-2.105712652206421,-0.1831054538488388,0.8239745497703552,66.66667175292969,21252.0,1.0
21236.5818928,317018.75,317174.5,317830.375,317365.1875,317275.78125,317444.75,317605.59375,317726.03125,0.2783203125,0.944580078125,0.220703125,-2.014159917831421,-0.1220703050494194,0.7629393935203552,66.66667175292969,21253.0,1.0
21236.5900224,316371.6875,316527.375,317183.34375,316718.4375,316628.75,316797.5625,316958.5625,317078.5625,0.27978515625,0.942626953125,0.21923828125,-1.9531248807907104,-0.1831054538488388,0.7324218153953552,66.66667175292969,21254.0,1.0
21236.5943674,320437.125,320594.03125,321250.375,320784.46875,320694.4375,320864.9375,321025.25,321145.59375,0.280029296875,0.94384765625,0.21923828125,-1.9226073026657104,-0.1831054538488388,0.8239745497703552,66.66667175292969,21255.0,1.0
21236.5943757,321773.40625,321930.9375,322587.28125,322121.1875,322031.0625,322201.9375,322362.0625,322482.40625,0.279296875,0.94189453125,0.219970703125,-1.9226073026657104,-0.0915527269244194,0.8239745497703552,66.66667175292969,21256.0,1.0
21236.6025214,317772.875,317928.8125,318584.875,318119.96875,318030.125,318199.4375,318360.125,318480.1875,0.27978515625,0.9423828125,0.220703125,-1.9226073026657104,-0.0610351525247097,0.7324218153953552,66.66667175292969,21257.0,1.0
21236.6056064,316046.625,316201.75,316857.71875,316392.8125,316303.3125,316472.28125,316633.125,316753.375,0.28173828125,0.94091796875,0.21728515625,-2.014159917831421,-0.1220703050494194,0.6713866591453552,66.66667175292969,21258.0,1.0
21236.6056138,319745.375,319901.65625,320558.09375,320092.09375,320002.6875,320172.21875,320332.875,320453.5625,0.28076171875,0.94384765625,0.218505859375,-1.9531248807907104,-0.2441406100988388,0.7019042372703552,66.66667175292969,21259.0,1.0
21236.61127,322001.84375,322159.03125,322815.8125,322349.09375,322259.59375,322429.90625,322590.5,322710.75,0.27978515625,0.943359375,0.220458984375,-1.8920897245407104,-0.1831054538488388,0.7019042372703552,66.66667175292969,21260.0,1.0
21236.615053,318618.59375,318774.875,319430.84375,318965.03125,318875.8125,319045.34375,319206.09375,319326.15625,0.277587890625,0.943359375,0.219970703125,-2.044677495956421,-0.1220703050494194,0.7324218153953552,66.66667175292969,21261.0,1.0
21236.6193625,315904.8125,316060.46875,316716.28125,316250.90625,316161.875,316330.5,316491.5,316611.5,0.27783203125,0.943603515625,0.21826171875,-2.136230230331421,-0.0610351525247097,0.7934569716453552,66.66667175292969,21262.0,1.0
21236.61937,318983.375,319139.84375,319795.90625,319329.90625,319240.875,319410.5625,319570.875,319691.21875,0.27880859375,0.94287109375,0.220703125,-2.014159917831421,-0.1525878757238388,0.7629393935203552,66.66667175292969,21263.0,1.0
21236.6331099,322028.9375,322185.75,322842.34375,322376.0,322286.59375,322457.53125,322617.3125,322737.46875,0.27880859375,0.94384765625,0.218505859375,-2.105712652206421,-0.1831054538488388,0.8544921278953552,66.66667175292969,21264.0,1.0
21236.6331184,319488.78125,319645.25,320301.6875,319835.40625,319746.46875,319916.15625,320076.46875,320196.4375,0.279541015625,0.943603515625,0.219482421875,-2.014159917831421,-0.2136230319738388,0.8544921278953552,66.66667175292969,21265.0,1.0
21236.6350241,315966.34375,316121.90625,316777.96875,316312.34375,316223.90625,316391.90625,316552.9375,316672.75,0.2802734375,0.9423828125,0.220947265625,-2.044677495956421,-0.1525878757238388,0.8544921278953552,66.66667175292969,21266.0,1.0
21236.6375303,318221.96875,318377.625,319033.78125,318568.0625,318479.375,318648.28125,318809.03125,318929.1875,0.27978515625,0.942626953125,0.21875,-2.136230230331421,-0.2746581733226776,0.9765624403953552,66.66667175292969,21267.0,1.0
21236.6412695,321875.5,322032.15625,322688.9375,322223.03125,322133.28125,322303.78125,322463.96875,322584.25,0.280517578125,0.943603515625,0.21826171875,-2.075195074081421,-0.1831054538488388,0.9155272841453552,66.66667175292969,21268.0,1.0
21236.6500364,320325.625,320481.65625,321138.78125,320672.96875,320583.03125,320753.28125,320913.65625,321033.65625,0.279541015625,0.942138671875,0.219482421875,-2.044677495956421,-0.2136230319738388,0.8544921278953552,66.66667175292969,21269.0,1.0
21236.6543655,316233.125,316387.96875,317044.65625,316579.3125,316490.15625,316658.53125,316819.625,316939.34375,0.28271484375,0.94140625,0.22216796875,-2.105712652206421,-0.1831054538488388,0.9460448622703552,66.66667175292969,21270.0,1.0
21236.6543733,317515.3125,317670.6875,318327.125,317861.84375,317772.625,317941.25,318102.09375,318221.875,0.28271484375,0.941162109375,0.219970703125,-2.105712652206421,-0.1831054538488388,0.9765624403953552,66.66667175292969,21271.0,1.0
21236.6562708,321554.8125,321711.0,322368.125,321902.15625,321812.375,321982.25,322142.84375,322263.09375,0.28173828125,0.9423828125,0.219970703125,-2.014159917831421,-0.1220703050494194,0.8544921278953552,66.66667175292969,21272.0,1.0
21236.6718947,321062.09375,321218.71875,321875.5,321409.34375,321319.65625,321489.96875,321650.1875,321770.71875,0.2822265625,0.942626953125,0.221923828125,-2.044677495956421,-0.1220703050494194,0.7629393935203552,66.66667175292969,21273.0,1.0
21236.6719023,316702.6875,316858.0625,317514.5,317049.21875,316959.71875,317128.71875,317289.46875,317409.53125,0.281982421875,0.942138671875,0.22119140625,-1.9226073026657104,-0.1525878757238388,0.6103515028953552,66.66667175292969,21274.0,1.0
21236.6743555,316913.25,317068.53125,317725.25,317260.0625,317170.46875,317339.25,317500.03125,317619.90625,0.28173828125,0.9423828125,0.221923828125,-1.8920897245407104,-0.2441406100988388,0.6408690810203552,66.66667175292969,21275.0,1.0
21236.6743638,321072.375,321228.8125,321885.53125,321419.875,321329.9375,321500.34375,321660.21875,321780.8125,0.28173828125,0.94287109375,0.222412109375,-1.8005369901657104,-0.2136230319738388,0.6713866591453552,66.66667175292969,21276.0,1.0
21236.6831002,321623.65625,321780.75,322437.15625,321971.34375,321881.3125,322052.09375,322212.3125,322332.71875,0.279541015625,0.942626953125,0.220703125,-1.8005369901657104,-0.1831054538488388,0.6713866591453552,66.66667175292969,21277.0,1.0
21236.6831083,317336.21875,317491.71875,318147.875,317682.78125,317593.1875,317762.0625,317923.0,318043.4375,0.280517578125,0.94384765625,0.220947265625,-1.9531248807907104,-0.1831054538488388,0.6713866591453552,66.66667175292969,21278.0,1.0
21236.6943572,316447.875,316602.8125,317258.625,316794.0625,316704.375,316873.1875,317033.84375,317154.09375,0.280517578125,0.942138671875,0.2197265625,-1.8615721464157104,-0.2136230319738388,0.6103515028953552,66.66667175292969,21279.0,1.0
21236.6943658,320456.34375,320612.625,321268.4375,320803.25,320713.03125,320883.8125,321043.9375,321164.1875,0.280029296875,0.944091796875,0.220703125,-1.9226073026657104,-0.2136230319738388,0.7019042372703552,66.66667175292969,21280.0,1.0
21236.6968871,322002.8125,322159.65625,322815.71875,322350.09375,322259.5,322431.0,322591.03125,322711.375,0.279541015625,0.943359375,0.221923828125,-1.8920897245407104,-0.2136230319738388,0.6408690810203552,66.66667175292969,21281.0,1.0
21236.6968936,318114.4375,318270.34375,318926.15625,318461.21875,318371.03125,318540.90625,318701.5625,318821.53125,0.278564453125,0.94287109375,0.22021484375,-1.8615721464157104,-0.2441406100988388,0.5798339247703552,66.66667175292969,21282.0,1.0
21236.7100233,316160.625,316315.65625,316971.25,316506.625,316416.9375,316585.90625,316746.9375,316866.84375,0.280029296875,0.943603515625,0.218994140625,-1.9226073026657104,-0.3051757514476776,0.6103515028953552,66.66667175292969,21283.0,1.0
21236.7174534,319742.53125,319898.09375,320554.53125,320089.25,319999.375,320169.34375,320329.75,320450.0,0.280517578125,0.942626953125,0.21875,-1.8920897245407104,-0.2746581733226776,0.7019042372703552,66.66667175292969,21284.0,1.0
21236.7174613,322182.4375,322338.90625,322995.78125,322529.78125,322439.65625,322610.34375,322770.46875,322890.71875,0.27978515625,0.943359375,0.218994140625,-1.8920897245407104,-0.3051757514476776,0.7324218153953552,66.66667175292969,21285.0,1.0
21236.7174654,318964.3125,319120.4375,319776.78125,319311.03125,319221.5625,319391.15625,319551.5625,319672.15625,0.28125,0.9443359375,0.22119140625,-1.9531248807907104,-0.2441406100988388,0.7629393935203552,66.66667175292969,21286.0,1.0
21236.720615,316060.21875,316215.40625,316871.40625,316406.125,316316.90625,316485.78125,316646.28125,316766.78125,0.279296875,0.943359375,0.22314453125,-1.9531248807907104,-0.1525878757238388,0.7324218153953552,66.66667175292969,21287.0,1.0
21236.7206232,318976.03125,319131.78125,319787.9375,319322.21875,319232.90625,319402.5,319563.0,319683.34375,0.27880859375,0.943359375,0.221923828125,-2.014159917831421,-0.03051757626235485,0.7019042372703552,66.66667175292969,21288.0,1.0
21236.7225286,322169.125,322325.75,322982.375,322515.9375,322426.34375,322597.1875,322757.25,322877.59375,0.280517578125,0.94580078125,0.221923828125,-1.8920897245407104,-0.0915527269244194,0.7019042372703552,66.66667175292969,21289.0,1.0
21236.7362767,319833.28125,319989.90625,320646.15625,320180.09375,320090.59375,320260.625,320421.125,320541.03125,0.280029296875,0.944091796875,0.22412109375,-1.9226073026657104,-0.1831054538488388,0.6713866591453552,66.66667175292969,21290.0,1.0
21236.7582052,316162.21875,316317.6875,316973.84375,316508.3125,316419.1875,316587.71875,316748.90625,316868.625,0.27978515625,0.94384765625,0.219970703125,-1.9836424589157104,-0.2136230319738388,0.7629393935203552,66.66667175292969,21291.0,1.0
21236.7582118,318215.90625,318371.65625,319028.0625,318562.71875,318472.84375,318642.625,318803.03125,318923.03125,0.28076171875,0.943603515625,0.22216796875,-1.9226073026657104,-0.1831054538488388,0.7324218153953552,66.66667175292969,21292.0,1.0
21236.758215,321976.09375,322133.28125,322789.875,322323.78125,322234.03125,322404.71875,322565.09375,322685.1875,0.2822265625,0.942138671875,0.222900390625,-1.8310545682907104,-0.1831054538488388,0.7019042372703552,66.66667175292969,21293.0,1.0
21236.758218,320650.8125,320807.71875,321464.25,320998.0625,320908.46875,321078.875,321239.09375,321359.28125,0.279052734375,0.9404296875,0.22119140625,-1.8005369901657104,-0.1220703050494194,0.5493163466453552,66.66667175292969,21294.0,1.0
21236.7582208,316467.0,316622.65625,317278.65625,316813.375,316723.96875,316892.78125,317053.6875,317173.6875,0.279541015625,0.941650390625,0.223388671875,-1.9226073026657104,-0.2136230319738388,0.5187987685203552,66.66667175292969,21295.0,1.0
21236.7606036,317519.96875,317675.875,318331.875,317866.78125,317777.34375,317946.4375,318107.1875,318227.4375,0.279052734375,0.944091796875,0.221923828125,-1.8920897245407104,-0.2136230319738388,0.6103515028953552,66.66667175292969,21296.0,1.0
21236.7606099,321604.4375,321761.15625,322417.9375,321951.9375,321861.8125,322032.5,322192.90625,322313.15625,0.27880859375,0.943603515625,0.219970703125,-1.9226073026657104,-0.2136230319738388,0.7934569716453552,66.66667175292969,21297.0,1.0
21236.7625308,321336.125,321492.40625,322148.90625,321682.84375,321593.4375,321763.5625,321924.40625,322044.40625,0.27978515625,0.942626953125,0.222412109375,-1.8920897245407104,-0.2136230319738388,0.6408690810203552,66.66667175292969,21298.0,1.0
21236.7649902,316965.375,317120.75,317776.71875,317311.46875,317222.40625,317391.21875,317552.3125,317672.125,0.27880859375,0.94482421875,0.220458984375,-1.9226073026657104,-0.2441406100988388,0.6408690810203552,66.66667175292969,21299.0,1.0
21236.7743569,316940.6875,317096.0625,317752.0625,317287.125,317197.46875,317366.53125,317527.1875,317647.28125,0.27880859375,0.9423828125,0.220703125,-1.9836424589157104,-0.2136230319738388,0.7019042372703552,66.66667175292969,21300.0,1.0
21236.7743649,321090.6875,321247.25,321903.5,321437.78125,321347.65625,321518.15625,321678.46875,321798.625,0.2783203125,0.94287109375,0.220947265625,-1.9836424589157104,-0.1831054538488388,0.7934569716453552,66.66667175292969,21301.0,1.0
21236.7762698,321863.875,322020.625,322676.875,322210.875,322121.1875,322291.96875,322451.90625,322572.15625,0.281005859375,0.94140625,0.2197265625,-1.9531248807907104,-0.1525878757238388,0.7019042372703552,66.66667175292969,21302.0,1.0
21236.7850176,317635.375,317790.6875,318447.03125,317981.46875,317892.15625,318061.59375,318222.15625,318342.0625,0.28076171875,0.94189453125,0.218017578125,-1.9226073026657104,-0.0610351525247097,0.6713866591453552,66.66667175292969,21303.0,1.0
21236.7893501,316504.125,316659.25,317315.125,316850.375,316760.96875,316929.78125,317090.4375,317210.59375,0.282470703125,0.93994140625,0.22314453125,-1.9531248807907104,-0.1831054538488388,0.6713866591453552,66.66667175292969,21304.0,1.0
21236.7893586,320442.03125,320598.3125,321254.84375,320789.21875,320699.53125,320869.5,321029.8125,321150.3125,0.28173828125,0.941162109375,0.222412109375,-2.014159917831421,-0.2441406100988388,0.7324218153953552,66.66667175292969,21305.0,1.0
21236.8031036,322193.96875,322350.09375,323007.3125,322541.3125,322451.1875,322621.96875,322782.09375,322902.625,0.281005859375,0.94189453125,0.2216796875,-1.8920897245407104,-0.2441406100988388,0.7629393935203552,66.66667175292969,21306.0,1.0
21236.8031125,318431.09375,318586.40625,319242.65625,318777.375,318687.53125,318857.5,319018.0625,319137.875,0.2822265625,0.94189453125,0.22119140625,-1.8615721464157104,-0.1831054538488388,0.7324218153953552,66.66667175292969,21307.0,1.0
21236.8056214,316258.875,316413.53125,317069.34375,316604.96875,316515.46875,316684.09375,316845.125,316964.90625,0.279296875,0.9423828125,0.22021484375,-1.9836424589157104,-0.2441406100988388,0.7019042372703552,66.66667175292969,21308.0,1.0
21236.8056295,319715.625,319871.625,320527.6875,320062.4375,319972.84375,320142.8125,320303.09375,320423.34375,0.280517578125,0.942138671875,0.220458984375,-2.014159917831421,-0.2746581733226776,0.7019042372703552,66.66667175292969,21309.0,1.0
21236.8075342,322336.65625,322493.21875,323150.09375,322684.0,322594.15625,322765.28125,322925.15625,323045.40625,0.28173828125,0.94091796875,0.21923828125,-1.9226073026657104,-0.1831054538488388,0.6408690810203552,66.66667175292969,21310.0,1.0
21236.8137683,319297.1875,319452.5625,320108.90625,319643.625,319554.21875,319723.75,319883.875,320004.21875,0.282958984375,0.9404296875,0.220947265625,-1.9531248807907104,-0.1831054538488388,0.7324218153953552,66.66667175292969,21311.0,1.0
21236.8206002,316207.28125,316361.78125,317018.125,316553.09375,316464.0625,316632.5,316793.0625,316913.59375,0.28125,0.93994140625,0.22265625,-1.9226073026657104,-0.2136230319738388,0.7019042372703552,66.66667175292969,21312.0,1.0
21236.8206083,318948.40625,319103.25,319759.875,319294.0625,319205.1875,319374.34375,319535.28125,319655.1875,0.280517578125,0.942138671875,0.221435546875,-1.9226073026657104,-0.1525878757238388,0.7324218153953552,66.66667175292969,21313.0,1.0
21236.8225262,322282.03125,322438.15625,323094.9375,322628.65625,322539.1875,322709.84375,322869.96875,322990.40625,0.28076171875,0.943603515625,0.22265625,-1.8920897245407104,-0.2136230319738388,0.7019042372703552,66.66667175292969,21314.0,1.0
21236.8312677,320160.3125,320316.4375,320972.84375,320507.3125,320417.90625,320587.6875,320747.71875,320868.15625,0.280517578125,0.94140625,0.22216796875,-1.9836424589157104,-0.0610351525247097,0.7629393935203552,66.66667175292969,21315.0,1.0
21236.8343469,316351.6875,316507.0625,317163.125,316697.78125,316608.8125,316777.78125,316938.4375,317058.25,0.27978515625,0.9423828125,0.222900390625,-1.8920897245407104,-0.1525878757238388,0.7934569716453552,66.66667175292969,21316.0,1.0
21236.8343545,318197.75,318352.96875,319009.375,318543.75,318454.96875,318623.96875,318784.625,318904.6875,0.283203125,0.943359375,0.22216796875,-1.8920897245407104,-0.1220703050494194,0.7019042372703552,66.66667175292969,21317.0,1.0
21236.8625254,322052.09375,322208.09375,322865.0625,322398.8125,322309.75,322480.0625,322639.84375,322760.71875,0.280517578125,0.943359375,0.22216796875,-1.9836424589157104,-0.2746581733226776,0.7019042372703552,66.66667175292969,21318.0,1.0
21236.8650322,320955.6875,321111.53125,321768.03125,321302.21875,321212.90625,321383.0625,321542.90625,321663.53125,0.28076171875,0.941162109375,0.22119140625,-1.9226073026657104,-0.2746581733226776,0.7629393935203552,66.66667175292969,21319.0,1.0
21236.8675307,316702.40625,316857.28125,317513.25,317048.25,316958.9375,317128.0,317288.46875,317408.5625,0.281005859375,0.943603515625,0.22265625,-1.9531248807907104,-0.2746581733226776,0.7629393935203552,66.66667175292969,21320.0,1.0
21236.8699868,317525.40625,317680.8125,318336.875,317871.59375,317782.1875,317951.53125,318112.28125,318232.4375,0.28076171875,0.942626953125,0.218505859375,-1.8310545682907104,-0.1831054538488388,0.6713866591453552,66.66667175292969,21321.0,1.0
21236.8723683,321651.28125,321807.75,322464.59375,321998.25,321908.59375,322079.34375,322239.46875,322359.75,0.279541015625,0.943115234375,0.21923828125,-1.8005369901657104,-0.1831054538488388,0.7324218153953552,66.66667175292969,21322.0,1.0
21236.8788849,321612.375,321768.84375,322425.71875,321959.1875,321869.59375,322040.1875,322200.59375,322320.75,0.279541015625,0.94189453125,0.220458984375,-1.8310545682907104,-0.0915527269244194,0.7019042372703552,66.66667175292969,21323.0,1.0
21236.8812675,317242.0,317397.125,318053.8125,317588.25,317498.6875,317667.75,317828.6875,317948.9375,0.28076171875,0.9423828125,0.221435546875,-1.9226073026657104,-0.2746581733226776,0.6408690810203552,66.66667175292969,21324.0,1.0
21236.8837678,316978.0625,317132.90625,317789.6875,317323.875,317234.65625,317403.46875,317564.75,317684.71875,0.280517578125,0.942138671875,0.220947265625,-1.9836424589157104,-0.2441406100988388,0.6713866591453552,66.66667175292969,21325.0,1.0
21236.8862605,321106.34375,321262.34375,321919.5,321453.25,321363.5625,321533.78125,321694.46875,321814.34375,0.281982421875,0.940673828125,0.21923828125,-1.9226073026657104,-0.2136230319738388,0.7629393935203552,66.66667175292969,21326.0,1.0
21236.8888453,322097.6875,322253.96875,322911.03125,322445.125,322355.25,322526.03125,322685.96875,322806.5,0.27880859375,0.94189453125,0.22216796875,-1.9836424589157104,-0.1831054538488388,0.7324218153953552,66.66667175292969,21327.0,1.0
21236.8912849,317944.09375,318099.3125,318755.46875,318290.28125,318200.875,318370.03125,318530.625,318651.125,0.281005859375,0.94384765625,0.21826171875,-1.8615721464157104,-0.2441406100988388,0.6713866591453552,66.66667175292969,21328.0,1.0
21236.8943451,316583.15625,316738.375,317394.4375,316929.4375,316839.84375,317008.46875,317169.40625,317289.90625,0.279052734375,0.943359375,0.2197265625,-1.9226073026657104,-0.1831054538488388,0.6713866591453552,66.66667175292969,21329.0,1.0
21236.8943517,320437.125,320593.21875,321250.1875,320784.375,320694.34375,320864.59375,321024.8125,321145.3125,0.2802734375,0.9423828125,0.220458984375,-1.9836424589157104,-0.1525878757238388,0.7934569716453552,66.66667175292969,21330.0,1.0
21236.8962694,322387.71875,322544.4375,323201.40625,322735.34375,322644.9375,322816.15625,322975.9375,323096.625,0.279541015625,0.94384765625,0.220947265625,-1.9531248807907104,-0.2136230319738388,0.7019042372703552,66.66667175292969,21331.0,1.0
21236.9006095,318760.5625,318916.59375,319573.0,319107.46875,319017.625,319187.5,319347.78125,319468.21875,0.27978515625,0.942138671875,0.221435546875,-1.9226073026657104,-0.1831054538488388,0.7324218153953552,66.66667175292969,21332.0,1.0
21236.9006173,316373.40625,316529.25,317185.21875,316719.59375,316630.625,316799.34375,316960.34375,317080.25,0.280517578125,0.94140625,0.220703125,-1.9531248807907104,-0.1831054538488388,0.6408690810203552,66.66667175292969,21333.0,1.0
21236.9037663,319693.15625,319849.28125,320505.875,320039.71875,319950.5625,320120.28125,320280.75,320400.75,0.281005859375,0.94140625,0.22119140625,-1.8615721464157104,-0.0610351525247097,0.6103515028953552,66.66667175292969,21334.0,1.0
21236.918094,322484.375,322641.0,323297.78125,322831.4375,322741.6875,322912.8125,323072.40625,323193.09375,0.282470703125,0.942626953125,0.221923828125,-1.8920897245407104,-0.1220703050494194,0.6713866591453552,66.66667175292969,21335.0,1.0
21236.9181006,319626.84375,319782.75,320439.375,319973.375,319883.6875,320054.03125,320213.96875,320334.40625,0.2822265625,0.94287109375,0.220703125,-1.7700194120407104,-0.1220703050494194,0.6713866591453552,66.66667175292969,21336.0,1.0
21236.9200207,316355.96875,316510.8125,317167.15625,316701.71875,316612.46875,316781.375,316942.3125,317062.375,0.280517578125,0.943603515625,0.22021484375,-1.8615721464157104,-0.1831054538488388,0.6103515028953552,66.66667175292969,21337.0,1.0
21236.9225308,318915.0625,319070.375,319727.0625,319261.0625,319171.75,319341.53125,319502.03125,319622.28125,0.280517578125,0.943359375,0.21875,-1.8615721464157104,-0.1831054538488388,0.6713866591453552,66.66667175292969,21338.0,1.0
21236.9262635,322384.3125,322540.96875,323197.65625,322731.75,322641.53125,322812.75,322972.625,323093.0625,0.2783203125,0.94287109375,0.222900390625,-1.9531248807907104,-0.1831054538488388,0.6408690810203552,66.66667175292969,21339.0,1.0
21236.9355976,320482.375,320638.125,321294.625,320829.1875,320739.15625,320909.71875,321069.6875,321190.03125,0.27880859375,0.943603515625,0.222412109375,-1.9836424589157104,-0.2136230319738388,0.6713866591453552,66.66667175292969,21340.0,1.0
21236.9356059,316551.0625,316705.46875,317362.25,316897.25,316807.46875,316977.0,317137.125,317257.46875,0.2783203125,0.94287109375,0.220458984375,-1.9226073026657104,-0.1831054538488388,0.5798339247703552,66.66667175292969,21341.0,1.0
21236.9375177,318183.71875,318338.84375,318995.15625,318529.71875,318439.875,318610.375,318770.125,318890.46875,0.279541015625,0.943359375,0.2197265625,-1.9531248807907104,-0.1220703050494194,0.5798339247703552,66.66667175292969,21342.0,1.0
21236.9493409,322116.28125,322273.1875,322929.71875,322463.34375,322373.3125,322544.71875,322704.5,322824.84375,0.27880859375,0.941650390625,0.21728515625,-2.014159917831421,-0.1220703050494194,0.7019042372703552,66.66667175292969,21343.0,1.0
21236.9493469,321250.28125,321406.84375,322063.4375,321597.53125,321507.15625,321678.375,321838.59375,321958.75,0.2802734375,0.94384765625,0.217041015625,-1.9226073026657104,-0.1525878757238388,0.6408690810203552,66.66667175292969,21344.0,1.0
21236.9518873,316942.03125,317097.25,317753.65625,317288.21875,317198.8125,317368.3125,317528.71875,317648.96875,0.27978515625,0.943603515625,0.218505859375,-1.9531248807907104,-0.2441406100988388,0.7629393935203552,66.66667175292969,21345.0,1.0
21236.9518946,317531.9375,317687.25,318343.84375,317878.125,317788.71875,317957.96875,318118.8125,318238.96875,0.2783203125,0.94287109375,0.219970703125,-1.9836424589157104,-0.2441406100988388,0.7934569716453552,66.66667175292969,21346.0,1.0
21236.9600191,321682.21875,321838.3125,322495.71875,322029.1875,321939.53125,322110.03125,322270.3125,322390.84375,0.279052734375,0.942626953125,0.22265625,-2.014159917831421,-0.1831054538488388,0.7629393935203552,66.66667175292969,21347.0,1.0
21236.9630901,321872.375,322028.3125,322685.90625,322219.28125,322129.59375,322300.1875,322460.40625,322580.5625,0.2802734375,0.943359375,0.2216796875,-1.9531248807907104,-0.0915527269244194,0.8239745497703552,66.66667175292969,21348.0,1.0
21236.9630961,317520.5,317675.78125,318332.65625,317866.84375,317777.0,317946.6875,318107.4375,318227.15625,0.28125,0.941650390625,0.221923828125,-1.9836424589157104,-0.0915527269244194,0.6713866591453552,66.66667175292969,21349.0,1.0
21236.9738446,317012.46875,317167.15625,317824.21875,317358.65625,317268.625,317438.40625,317599.0,317718.8125,0.28125,0.94091796875,0.221923828125,-1.9226073026657104,-0.0915527269244194,0.7324218153953552,66.66667175292969,21350.0,1.0
21236.9814611,321106.15625,321262.09375,321919.125,321453.25,321363.21875,321534.25,321694.28125,321814.53125,0.2802734375,0.943603515625,0.221923828125,-1.9226073026657104,-0.0915527269244194,0.7324218153953552,66.66667175292969,21351.0,1.0
21236.9814695,322316.0,322472.21875,323129.34375,322663.09375,322572.875,322744.28125,322904.65625,323024.9375,0.281494140625,0.94287109375,0.22412109375,-1.9226073026657104,-0.1525878757238388,0.7324218153953552,66.66667175292969,21352.0,1.0
21236.983847,318253.53125,318408.9375,319065.34375,318599.90625,318510.0625,318679.84375,318840.75,318960.75,0.28125,0.94189453125,0.2236328125,-1.9226073026657104,-0.1831054538488388,0.7324218153953552,66.66667175292969,21353.0,1.0
21236.9888439,316659.875,316814.4375,317471.3125,317005.96875,316916.71875,317085.34375,317246.28125,317366.4375,0.281494140625,0.940673828125,0.2216796875,-1.9226073026657104,-0.2136230319738388,0.6713866591453552,66.66667175292969,21354.0,1.0
21236.9912751,320420.40625,320575.8125,321232.9375,320767.03125,320677.4375,320847.6875,321008.0,321128.5,0.28173828125,0.943115234375,0.223876953125,-1.9531248807907104,-0.1831054538488388,0.6713866591453552,66.66667175292969,21355.0,1.0
21236.9938424,322564.84375,322721.65625,323378.0,322912.4375,322822.0625,322993.375,323153.3125,323273.75,0.281494140625,0.942626953125,0.2236328125,-1.9226073026657104,-0.1831054538488388,0.7019042372703552,66.66667175292969,21356.0,1.0
21236.9962587,319085.75,319241.75,319898.0,319432.8125,319342.875,319512.9375,319673.3125,319793.3125,0.280517578125,0.941162109375,0.224365234375,-1.8615721464157104,-0.2441406100988388,0.6103515028953552,66.66667175292969,21357.0,1.0
21237.0050301,316492.9375,316648.15625,317304.125,316839.21875,316749.90625,316918.875,317079.4375,317199.34375,0.281005859375,0.941162109375,0.2236328125,-1.8920897245407104,-0.2441406100988388,0.6713866591453552,66.66667175292969,21358.0,1.0
21237.0093485,319665.09375,319821.03125,320477.71875,320012.09375,319922.40625,320092.28125,320252.5,320373.125,0.280029296875,0.94287109375,0.222412109375,-1.9531248807907104,-0.1525878757238388,0.7324218153953552,66.66667175292969,21359.0,1.0
21237.009355,322617.75,322774.21875,323431.375,322965.125,322875.0625,323046.125,323206.15625,323326.65625,0.279296875,0.94189453125,0.220703125,-1.9226073026657104,-0.0610351525247097,0.7324218153953552,66.66667175292969,21360.0,1.0
21237.0225199,319957.625,320113.5625,320770.625,320304.28125,320214.6875,320384.75,320545.40625,320665.5625,0.281494140625,0.943603515625,0.220458984375,-1.9226073026657104,-0.0610351525247097,0.7629393935203552,66.66667175292969,21361.0,1.0
21237.0255946,316522.96875,316678.28125,317334.53125,316869.34375,316779.75,316949.1875,317110.125,317229.75,0.281982421875,0.9443359375,0.222412109375,-1.8615721464157104,-0.2136230319738388,0.6408690810203552,66.66667175292969,21362.0,1.0
21237.0256033,318894.0625,319049.875,319706.125,319240.6875,319150.65625,319321.0625,319481.90625,319601.625,0.2802734375,0.942626953125,0.221435546875,-1.8615721464157104,-0.1831054538488388,0.6408690810203552,66.66667175292969,21363.0,1.0
21237.0275148,322485.09375,322641.625,323298.5,322832.34375,322742.125,322913.625,323073.65625,323194.0,0.279541015625,0.9423828125,0.223876953125,-1.8615721464157104,-0.2136230319738388,0.6713866591453552,66.66667175292969,21364.0,1.0
21237.0343456,320799.75,320955.96875,321613.09375,321147.28125,321057.15625,321227.9375,321387.96875,321508.21875,0.27880859375,0.94189453125,0.221435546875,-1.9531248807907104,-0.1831054538488388,0.7324218153953552,66.66667175292969,21365.0,1.0
21237.0343537,316755.78125,316910.90625,317567.6875,317102.5,317012.75,317181.90625,317342.125,317462.8125,0.27783203125,0.942626953125,0.2197265625,-1.9531248807907104,-0.2441406100988388,0.6713866591453552,66.66667175292969,21366.0,1.0
21237.0431194,318168.96875,318324.34375,318981.3125,318515.3125,318425.46875,318595.625,318755.90625,318876.15625,0.277587890625,0.94189453125,0.22412109375,-1.9226073026657104,-0.1831054538488388,0.6408690810203552,66.66667175292969,21367.0,1.0
21237.0431277,322174.3125,322330.5,322987.90625,322521.65625,322431.53125,322602.75,322762.78125,322882.9375,0.27880859375,0.9423828125,0.22021484375,-1.9531248807907104,-0.0610351525247097,0.6713866591453552,66.66667175292969,21368.0,1.0
21237.0450174,321540.9375,321696.96875,322354.1875,321888.03125,321797.8125,321968.9375,322128.78125,322249.21875,0.279541015625,0.94091796875,0.221435546875,-1.9226073026657104,-0.1831054538488388,0.6408690810203552,66.66667175292969,21369.0,1.0
21237.0537654,317192.28125,317347.03125,318003.65625,317538.28125,317448.25,317618.21875,317778.25,317898.6875,0.280029296875,0.94189453125,0.220703125,-1.8615721464157104,-0.1220703050494194,0.7324218153953552,66.66667175292969,21370.0,1.0
21237.056887,317543.75,317699.40625,318355.71875,317890.28125,317800.25,317970.375,318130.4375,318250.9375,0.27978515625,0.94189453125,0.2216796875,-1.9226073026657104,-0.1831054538488388,0.7629393935203552,66.66667175292969,21371.0,1.0
21237.0568952,321704.84375,321862.0,322518.625,322052.25,321962.40625,322133.28125,322293.3125,322413.8125,0.280029296875,0.94189453125,0.220458984375,-1.8615721464157104,-0.1831054538488388,0.7629393935203552,66.66667175292969,21372.0,1.0
21237.0588387,322123.34375,322280.34375,322937.125,322470.96875,322381.09375,322551.875,322712.0,322832.59375,0.281494140625,0.941650390625,0.22119140625,-1.9531248807907104,-0.1831054538488388,0.7629393935203552,66.66667175292969,21373.0,1.0
21237.0725149,317805.96875,317961.53125,318617.875,318152.875,318063.1875,318232.34375,318392.84375,318513.0,0.28076171875,0.9423828125,0.221435546875,-1.8615721464157104,-0.1525878757238388,0.7324218153953552,66.66667175292969,21374.0,1.0
21237.0756103,317055.125,317210.6875,317867.125,317402.03125,317312.4375,317481.40625,317642.1875,317762.0625,0.28076171875,0.942626953125,0.22265625,-1.8310545682907104,-0.1831054538488388,0.6103515028953552,66.66667175292969,21375.0,1.0
21237.0756183,321100.15625,321256.90625,321914.03125,321447.78125,321357.84375,321528.34375,321688.65625,321808.90625,0.28076171875,0.94287109375,0.22216796875,-1.8920897245407104,-0.0915527269244194,0.6713866591453552,66.66667175292969,21376.0,1.0
21237.081716,322521.84375,322679.0,323335.96875,322869.4375,322779.84375,322950.625,323110.3125,323230.90625,0.2802734375,0.943603515625,0.22021484375,-1.8920897245407104,-0.1525878757238388,0.6408690810203552,66.66667175292969,21377.0,1.0
21237.0817243,318560.46875,318716.59375,319373.28125,318907.28125,318817.96875,318987.46875,319147.78125,319268.21875,0.281494140625,0.941650390625,0.219482421875,-2.014159917831421,-0.1525878757238388,0.7324218153953552,66.66667175292969,21378.0,1.0
21237.0850342,316740.6875,316896.0,317552.59375,317087.125,316997.625,317166.71875,317327.5625,317447.625,0.2802734375,0.94287109375,0.220703125,-1.9836424589157104,-0.2441406100988388,0.7324218153953552,66.66667175292969,21379.0,1.0
21237.1018826,320394.21875,320550.5,321206.90625,320740.9375,320651.34375,320821.9375,320982.15625,321102.3125,0.279541015625,0.943359375,0.220703125,-1.9531248807907104,-0.1831054538488388,0.7629393935203552,66.66667175292969,21380.0,1.0
21237.1018887,322730.3125,322887.3125,323543.9375,323077.5,322987.5625,323158.6875,323318.96875,323439.3125,0.279296875,0.942626953125,0.22265625,-1.7700194120407104,-0.1220703050494194,0.8239745497703552,66.66667175292969,21381.0,1.0
21237.1092773,319410.75,319566.84375,320223.4375,319757.8125,319668.0625,319837.90625,319998.75,320118.65625,0.2802734375,0.942626953125,0.22119140625,-1.7395018339157104,-0.0915527269244194,0.7019042372703552,66.66667175292969,21382.0,1.0
21237.1092848,316619.71875,316774.46875,317430.625,316965.90625,316876.21875,317045.21875,317206.0625,317326.3125,0.27978515625,0.942138671875,0.220703125,-1.8310545682907104,-0.1831054538488388,0.7019042372703552,66.66667175292969,21383.0,1.0
21237.1092886,319635.875,319791.96875,320448.40625,319982.9375,319893.0,320063.0625,320223.4375,320343.875,0.281005859375,0.9423828125,0.220703125,-1.8615721464157104,-0.2136230319738388,0.7019042372703552,66.66667175292969,21384.0,1.0
21237.1092923,322742.40625,322899.21875,323556.09375,323089.65625,322999.96875,323171.28125,323331.0625,323451.46875,0.28076171875,0.9423828125,0.22021484375,-1.9226073026657104,-0.2441406100988388,0.6103515028953552,66.66667175292969,21385.0,1.0
21237.1112807,320280.9375,320436.9375,321093.46875,320627.75,320537.96875,320708.3125,320868.6875,320988.6875,0.281494140625,0.941650390625,0.219482421875,-1.9226073026657104,-0.2441406100988388,0.6713866591453552,66.66667175292969,21386.0,1.0
21237.1150121,316689.71875,316845.125,317501.0,317035.90625,316946.21875,317115.75,317276.59375,317396.65625,0.28125,0.943603515625,0.2197265625,-1.9531248807907104,-0.2441406100988388,0.6713866591453552,66.66667175292969,21387.0,1.0
21237.1288322,318867.6875,319023.25,319679.9375,319214.125,319124.375,319294.40625,319455.25,319575.34375,0.281982421875,0.9404296875,0.222412109375,-1.8920897245407104,-0.2136230319738388,0.7019042372703552,66.66667175292969,21388.0,1.0
21237.1361975,322569.84375,322726.40625,323383.34375,322917.09375,322826.96875,322998.28125,323158.5,323278.46875,0.28076171875,0.94140625,0.22021484375,-1.8615721464157104,-0.2441406100988388,0.7324218153953552,66.66667175292969,21389.0,1.0
21237.1362049,321108.125,321264.6875,321921.28125,321455.46875,321365.625,321536.21875,321696.25,321816.5,0.280029296875,0.941162109375,0.220947265625,-1.9226073026657104,-0.3051757514476776,0.6713866591453552,66.66667175292969,21390.0,1.0
21237.1362088,316972.78125,317128.0,317784.0625,317319.15625,317229.46875,317398.71875,317559.5625,317679.46875,0.278564453125,0.940673828125,0.220458984375,-1.9226073026657104,-0.1525878757238388,0.6103515028953552,66.66667175292969,21391.0,1.0
21237.1393511,318162.0625,318318.0,318973.96875,318509.0625,318419.21875,318589.09375,318749.5625,318869.71875,0.27978515625,0.943603515625,0.2197265625,-1.9836424589157104,-0.2441406100988388,0.6103515028953552,66.66667175292969,21392.0,1.0
21237.1393584,322221.5,322378.34375,323034.75,322569.21875,322478.90625,322650.75,322810.0625,322930.875,0.2822265625,0.941650390625,0.221923828125,-1.9836424589157104,-0.2441406100988388,0.7019042372703552,66.66667175292969,21393.0,1.0
21237.147515,321817.3125,321973.6875,322630.46875,322164.65625,322074.15625,322246.09375,322405.6875,322526.125,0.27880859375,0.942138671875,0.221923828125,-1.9836424589157104,-0.2441406100988388,0.6713866591453552,66.66667175292969,21394.0,1.0
21237.1543445,317445.84375,317600.78125,318257.46875,317792.1875,317702.15625,317872.40625,318032.78125,318152.875,0.280517578125,0.94140625,0.222412109375,-1.9531248807907104,-0.2136230319738388,0.6713866591453552,66.66667175292969,21395.0,1.0
21237.1543523,317565.03125,317720.0625,318376.375,317911.125,317821.71875,317991.03125,318151.71875,318271.59375,0.281494140625,0.94189453125,0.220703125,-1.8615721464157104,-0.1220703050494194,0.6408690810203552,66.66667175292969,21396.0,1.0
21237.1605955,321723.25,321879.34375,322535.78125,322069.78125,321980.28125,322151.0625,322311.0,322431.4375,0.281494140625,0.941650390625,0.219970703125,-1.9226073026657104,-0.2136230319738388,0.7324218153953552,66.66667175292969,21397.0,1.0
21237.1606033,322362.15625,322518.625,323175.125,322709.125,322618.9375,322790.6875,322950.34375,323070.78125,0.278564453125,0.940185546875,0.22314453125,-1.9226073026657104,-0.2136230319738388,0.7019042372703552,66.66667175292969,21398.0,1.0
21237.1712667,318096.09375,318251.75,318907.8125,318442.71875,318352.6875,318522.9375,318683.21875,318803.3125,0.279541015625,0.94140625,0.225830078125,-2.014159917831421,-0.0915527269244194,0.6713866591453552,66.66667175292969,21399.0,1.0
21237.1755891,317110.90625,317266.125,317922.5625,317457.90625,317367.6875,317537.375,317697.78125,317817.9375,0.27978515625,0.94189453125,0.22412109375,-1.8920897245407104,-0.0610351525247097,0.7019042372703552,66.66667175292969,21400.0,1.0
21237.1755964,321093.5625,321249.9375,321906.4375,321440.71875,321350.5,321521.71875,321681.75,321801.9375,0.280029296875,0.941650390625,0.22021484375,-1.8920897245407104,-0.1525878757238388,0.6713866591453552,66.66667175292969,21401.0,1.0
21237.1843474,322721.375,322878.46875,323534.90625,323068.90625,322978.875,323150.375,323310.3125,323430.46875,0.281494140625,0.9404296875,0.22265625,-1.8920897245407104,-0.2136230319738388,0.6103515028953552,66.66667175292969,21402.0,1.0
21237.1843558,318877.25,319033.25,319689.5,319224.15625,319134.5625,319305.0625,319465.0,319584.90625,0.279052734375,0.94091796875,0.2216796875,-1.9531248807907104,-0.1831054538488388,0.6103515028953552,66.66667175292969,21403.0,1.0
21237.1862577,316834.125,316989.0625,317645.46875,317180.125,317090.71875,317260.3125,317420.8125,317540.78125,0.280029296875,0.941650390625,0.22412109375,-2.014159917831421,-0.2136230319738388,0.5493163466453552,66.66667175292969,21404.0,1.0
21237.1898678,320369.96875,320525.8125,321182.25,320716.53125,320626.84375,320797.34375,320957.75,321077.5625,0.280029296875,0.942138671875,0.221923828125,-1.9836424589157104,-0.1831054538488388,0.6103515028953552,66.66667175292969,21405.0,1.0
21237.1968808,322885.53125,323042.28125,323698.78125,323232.53125,323142.84375,323314.25,323474.375,323594.0,0.278564453125,0.943115234375,0.224609375,-2.014159917831421,-0.03051757626235485,0.6408690810203552,66.66667175292969,21406.0,1.0
21237.1968873,319735.71875,319891.375,320547.90625,320082.0,319992.40625,320163.1875,320323.125,320443.21875,0.280517578125,0.943603515625,0.222412109375,-1.9226073026657104,-0.1525878757238388,0.6713866591453552,66.66667175292969,21407.0,1.0
21237.1987602,316754.46875,316909.40625,317565.90625,317100.46875,317011.15625,317180.5625,317340.78125,317460.84375,0.281494140625,0.942626953125,0.22119140625,-1.8920897245407104,-0.1220703050494194,0.6713866591453552,66.66667175292969,21408.0,1.0
21237.2075144,319600.8125,319756.375,320412.8125,319947.28125,319857.78125,320028.09375,320188.21875,320308.46875,0.283447265625,0.94287109375,0.22314453125,-1.8920897245407104,-0.1220703050494194,0.6713866591453552,66.66667175292969,21409.0,1.0
21237.2121424,322854.4375,323011.25,323667.5,323201.6875,323111.46875,323283.21875,323442.8125,323563.34375,0.28271484375,0.94189453125,0.21923828125,-1.8615721464157104,-0.2441406100988388,0.6713866591453552,66.66667175292969,21410.0,1.0
21237.2121482,320604.0625,320760.34375,321416.3125,320950.5,320860.90625,321031.78125,321191.71875,321312.25,0.282470703125,0.944091796875,0.220703125,-1.9226073026657104,-0.2136230319738388,0.7019042372703552,66.66667175292969,21411.0,1.0
21237.2150067,316871.21875,317026.34375,317682.125,317216.78125,317127.71875,317297.15625,317457.375,317577.71875,0.280517578125,0.9423828125,0.22119140625,-1.8310545682907104,-0.1525878757238388,0.7019042372703552,66.66667175292969,21412.0,1.0
21237.229947,318841.21875,318996.875,319652.84375,319187.5,319097.90625,319267.6875,319428.0,319548.34375,0.281005859375,0.944580078125,0.219970703125,-1.8310545682907104,-0.2136230319738388,0.7019042372703552,66.66667175292969,21413.0,1.0
21237.2299533,322641.71875,322798.1875,323454.6875,322988.34375,322898.59375,323069.90625,323229.84375,323350.375,0.281005859375,0.944580078125,0.221435546875,-1.8615721464157104,-0.0610351525247097,0.7629393935203552,66.66667175292969,21414.0,1.0
21237.2299565,321408.71875,321565.0,322221.34375,321755.15625,321665.59375,321836.625,321996.46875,322116.90625,0.27880859375,0.94140625,0.219970703125,-1.8615721464157104,-0.1220703050494194,0.6713866591453552,66.66667175292969,21415.0,1.0
21237.2325103,317192.1875,317347.5,318003.5625,317538.28125,317448.78125,317618.5625,317778.625,317898.78125,0.2783203125,0.94287109375,0.220947265625,-1.8920897245407104,-0.2136230319738388,0.6408690810203552,66.66667175292969,21416.0,1.0
21237.2352579,318154.46875,318310.125,318965.9375,318501.09375,318411.34375,318581.125,318741.4375,318861.5,0.27783203125,0.941650390625,0.21923828125,-1.9226073026657104,-0.2746581733226776,0.6408690810203552,66.66667175292969,21417.0,1.0
21237.2387612,322260.21875,322416.875,323073.46875,322607.75,322517.8125,322688.75,322848.6875,322968.875,0.281005859375,0.941162109375,0.2216796875,-1.9226073026657104,-0.2746581733226776,0.7019042372703552,66.66667175292969,21418.0,1.0
21237.2525202,322087.21875,322243.59375,322900.28125,322434.375,322344.8125,322515.9375,322675.96875,322795.78125,0.280029296875,0.942138671875,0.222900390625,-1.9226073026657104,-0.2746581733226776,0.6408690810203552,66.66667175292969,21419.0,1.0
21237.2555914,317709.21875,317864.4375,318520.5,318055.40625,317965.90625,318135.53125,318296.375,318415.8125,0.280029296875,0.94140625,0.22119140625,-1.9226073026657104,-0.1525878757238388,0.6408690810203552,66.66667175292969,21420.0,1.0
21237.2555994,317584.40625,317739.8125,318395.78125,317930.59375,317841.03125,318010.625,318171.1875,318290.90625,0.279541015625,0.941650390625,0.22314453125,-1.8310545682907104,-0.1525878757238388,0.6713866591453552,66.66667175292969,21421.0,1.0
21237.2575241,321730.03125,321886.25,322542.84375,322077.375,321987.53125,322158.21875,322317.90625,322438.40625,0.280517578125,0.941162109375,0.222900390625,-1.8005369901657104,-0.2136230319738388,0.7324218153953552,66.66667175292969,21422.0,1.0
21237.2600187,322593.09375,322749.8125,323406.0625,322940.4375,322850.3125,323021.71875,323181.375,323301.625,0.279541015625,0.941162109375,0.220703125,-1.8615721464157104,-0.1525878757238388,0.7324218153953552,66.66667175292969,21423.0,1.0
21237.2688505,318391.0625,318546.25,319202.0625,318737.0625,318647.28125,318817.59375,318977.8125,319097.625,0.28076171875,0.94140625,0.220458984375,-1.9226073026657104,-0.1525878757238388,0.6408690810203552,66.66667175292969,21424.0,1.0
21237.2718848,317168.0625,317323.09375,317978.71875,317513.96875,317424.1875,317593.90625,317754.5625,317874.28125,0.28125,0.9423828125,0.22216796875,-1.8920897245407104,-0.2136230319738388,0.6408690810203552,66.66667175292969,21425.0,1.0
21237.2718932,321076.03125,321232.40625,321888.1875,321422.9375,321332.8125,321503.5625,321663.78125,321784.03125,0.2822265625,0.94091796875,0.220703125,-1.8615721464157104,-0.2441406100988388,0.6408690810203552,66.66667175292969,21426.0,1.0
21237.277521,322906.90625,323063.53125,323719.71875,323254.15625,323164.125,323335.6875,323495.125,323615.90625,0.27978515625,0.941650390625,0.219970703125,-1.8310545682907104,-0.1525878757238388,0.7629393935203552,66.66667175292969,21427.0,1.0
21237.2868842,319194.0,319349.75,320005.75,319540.46875,319451.15625,319621.5625,319781.40625,319901.59375,0.279296875,0.94140625,0.218994140625,-1.9226073026657104,-0.2136230319738388,0.7019042372703552,66.66667175292969,21428.0,1.0
21237.2868921,316936.40625,317091.78125,317747.6875,317282.84375,317193.34375,317362.875,317523.34375,317643.25,0.280029296875,0.94189453125,0.2236328125,-1.9226073026657104,-0.2746581733226776,0.7019042372703552,66.66667175292969,21429.0,1.0
21237.2887614,320339.5,320496.125,321152.375,320686.5625,320597.0,320767.5,320927.53125,321047.96875,0.28173828125,0.9443359375,0.222900390625,-2.014159917831421,-0.1831054538488388,0.7019042372703552,66.66667175292969,21430.0,1.0
21237.292511,323029.75,323186.65625,323843.4375,323377.09375,323287.6875,323459.0,323618.84375,323739.1875,0.28125,0.943603515625,0.22216796875,-1.9531248807907104,-0.1525878757238388,0.8239745497703552,66.66667175292969,21431.0,1.0
21237.3055935,320060.90625,320217.0,320873.4375,320407.90625,320318.21875,320488.53125,320649.125,320768.65625,0.282470703125,0.944091796875,0.220703125,-1.8615721464157104,-0.0915527269244194,0.7629393935203552,66.66667175292969,21432.0,1.0
21237.305602,316897.0625,317052.71875,317708.0625,317243.34375,317154.09375,317323.15625,317483.84375,317603.5625,0.28271484375,0.9423828125,0.22119140625,-1.8615721464157104,-0.1525878757238388,0.7324218153953552,66.66667175292969,21433.0,1.0
21237.3075128,319567.1875,319723.3125,320379.28125,319913.75,319824.0625,319994.21875,320154.4375,320274.40625,0.28125,0.942626953125,0.219970703125,-1.8615721464157104,-0.1831054538488388,0.7019042372703552,66.66667175292969,21434.0,1.0
21237.3100119,322959.84375,323116.75,323773.34375,323306.90625,323217.5,323388.8125,323548.3125,323668.75,0.280029296875,0.942626953125,0.217529296875,-1.9226073026657104,-0.1525878757238388,0.7324218153953552,66.66667175292969,21435.0,1.0
21237.3168836,320923.84375,321080.0625,321736.3125,321270.59375,321181.1875,321351.75,321511.53125,321631.96875,0.279296875,0.9423828125,0.219482421875,-1.8920897245407104,-0.1525878757238388,0.7324218153953552,66.66667175292969,21436.0,1.0
21237.3168913,317060.40625,317215.875,317871.9375,317406.84375,317317.53125,317486.78125,317647.28125,317767.25,0.280517578125,0.9404296875,0.222412109375,-1.8920897245407104,-0.1220703050494194,0.6713866591453552,66.66667175292969,21437.0,1.0
21237.3225082,318823.875,318979.53125,319635.875,319170.78125,319080.90625,319250.59375,319411.4375,319531.53125,0.279296875,0.9423828125,0.223876953125,-1.9226073026657104,-0.0915527269244194,0.7324218153953552,66.66667175292969,21438.0,1.0
21237.3318927,322713.4375,322869.53125,323526.40625,323060.15625,322970.125,323141.25,323301.625,323422.0625,0.279541015625,0.942138671875,0.218017578125,-1.9226073026657104,0.0,0.6713866591453552,66.66667175292969,21439.0,1.0
21237.331901,321707.0625,321863.53125,322520.125,322054.0625,321964.5625,322135.21875,322295.53125,322415.875,0.278564453125,0.94189453125,0.22021484375,-1.8920897245407104,-0.1220703050494194,0.6713866591453552,66.66667175292969,21440.0,1.0
21237.3343418,317426.34375,317581.5625,318237.625,317772.4375,317683.21875,317852.5625,318013.3125,318133.46875,0.281005859375,0.94287109375,0.21826171875,-1.8920897245407104,-0.2746581733226776,0.6408690810203552,66.66667175292969,21441.0,1.0
21237.3343488,318151.53125,318306.75,318962.8125,318497.8125,318408.03125,318577.90625,318738.46875,318858.65625,0.281494140625,0.94189453125,0.22216796875,-1.9226073026657104,-0.2441406100988388,0.7324218153953552,66.66667175292969,21442.0,1.0
21237.3425112,322284.71875,322441.375,323097.875,322631.8125,322542.03125,322712.90625,322873.125,322993.4375,0.279296875,0.94140625,0.220458984375,-1.9531248807907104,-0.2441406100988388,0.7019042372703552,66.66667175292969,21443.0,1.0
21237.3450281,322343.28125,322500.0,323156.71875,322690.625,322600.59375,322771.625,322931.65625,323052.28125,0.279052734375,0.94287109375,0.220458984375,-1.9226073026657104,-0.3051757514476776,0.6408690810203552,66.66667175292969,21444.0,1.0
21237.3487612,317977.1875,318132.75,318789.0,318323.625,318233.875,318403.375,318564.125,318684.125,0.281005859375,0.943603515625,0.219970703125,-1.8920897245407104,-0.2746581733226776,0.6713866591453552,66.66667175292969,21445.0,1.0
21237.35753,317606.6875,317762.59375,318418.84375,317953.5,317863.8125,318033.25,318193.625,318313.96875,0.2822265625,0.9453125,0.22119140625,-1.9226073026657104,-0.3051757514476776,0.7019042372703552,66.66667175292969,21446.0,1.0
21237.3621846,321723.875,321880.4375,322537.3125,322071.3125,321981.0,322152.40625,322312.4375,322432.4375,0.281005859375,0.943603515625,0.218505859375,-1.9531248807907104,-0.2746581733226776,0.7324218153953552,66.66667175292969,21447.0,1.0
21237.362192,322809.53125,322966.4375,323623.21875,323157.15625,323067.125,323238.53125,323398.46875,323518.1875,0.279541015625,0.94189453125,0.21875,-1.9226073026657104,-0.1831054538488388,0.6408690810203552,66.66667175292969,21448.0,1.0
21237.3675214,318691.8125,318847.375,319503.71875,319038.34375,318948.84375,319118.5625,319279.125,319398.9375,0.280029296875,0.94287109375,0.219970703125,-1.9531248807907104,-0.1525878757238388,0.7019042372703552,66.66667175292969,21449.0,1.0
21237.3700112,317240.03125,317395.15625,318051.21875,317586.21875,317496.8125,317666.0625,317826.71875,317946.59375,0.281494140625,0.943359375,0.222900390625,-1.9836424589157104,-0.1831054538488388,0.7019042372703552,66.66667175292969,21450.0,1.0
21237.3737607,321061.09375,321217.5625,321874.0625,321408.1875,321318.59375,321489.4375,321649.5,321769.5625,0.280517578125,0.942626953125,0.220703125,-1.9226073026657104,-0.1525878757238388,0.7324218153953552,66.66667175292969,21451.0,1.0
21237.3830935,323086.4375,323243.4375,323900.3125,323433.875,323344.1875,323515.5,323675.53125,323795.6875,0.280029296875,0.943359375,0.22265625,-1.9531248807907104,-0.03051757626235485,0.6713866591453552,66.66667175292969,21452.0,1.0
21237.3831018,319512.9375,319668.84375,320325.28125,319859.65625,319770.34375,319940.28125,320100.59375,320220.75,0.28173828125,0.941650390625,0.220703125,-2.014159917831421,-0.03051757626235485,0.6408690810203552,66.66667175292969,21453.0,1.0
21237.3850124,317039.84375,317194.96875,317850.9375,317385.84375,317296.78125,317465.875,317626.4375,317746.5,0.280517578125,0.942626953125,0.219970703125,-1.8920897245407104,-0.2136230319738388,0.6408690810203552,66.66667175292969,21454.0,1.0
21237.3887569,320299.8125,320456.0,321112.15625,320646.34375,320556.9375,320727.34375,320887.28125,321007.625,0.280517578125,0.944091796875,0.223388671875,-1.8615721464157104,-0.1220703050494194,0.6713866591453552,66.66667175292969,21455.0,1.0
21237.4105917,323160.5625,323317.90625,323974.34375,323508.09375,323418.3125,323590.0625,323749.75,323870.28125,0.2802734375,0.943115234375,0.21923828125,-1.8310545682907104,-0.0915527269244194,0.7629393935203552,66.66667175292969,21456.0,1.0
21237.4106,320386.4375,320543.25,321199.59375,320733.78125,320643.75,320814.6875,320975.0,321095.15625,0.281494140625,0.943359375,0.220703125,-1.9531248807907104,-0.0915527269244194,0.6408690810203552,66.66667175292969,21457.0,1.0
21237.4136893,317051.71875,317207.5625,317863.5625,317398.1875,317308.59375,317478.125,317638.6875,317758.75,0.2822265625,0.9423828125,0.2216796875,-1.9531248807907104,-0.1220703050494194,0.5798339247703552,66.66667175292969,21458.0,1.0
21237.4136957,319540.28125,319696.5625,320352.90625,319886.8125,319797.5,319967.65625,320127.875,320248.125,0.283935546875,0.94140625,0.220458984375,-1.9531248807907104,-0.2441406100988388,0.6103515028953552,66.66667175292969,21459.0,1.0
21237.4136988,323055.84375,323213.03125,323869.5625,323403.21875,323313.09375,323484.84375,323644.59375,323765.21875,0.283447265625,0.942138671875,0.21923828125,-1.8005369901657104,-0.03051757626235485,0.5798339247703552,66.66667175292969,21460.0,1.0
21237.4168823,321233.375,321390.28125,322046.4375,321580.71875,321490.6875,321661.5625,321821.59375,321942.375,0.28173828125,0.940673828125,0.220703125,-1.9226073026657104,-0.0610351525247097,0.6408690810203552,66.66667175292969,21461.0,1.0
21237.4168901,317254.5,317410.25,318066.5,317601.21875,317511.8125,317680.875,317841.46875,317961.90625,0.28173828125,0.941650390625,0.22314453125,-1.8920897245407104,-0.1525878757238388,0.7019042372703552,66.66667175292969,21462.0,1.0
21237.41884,318800.53125,318956.90625,319613.25,319147.4375,319058.28125,319227.8125,319388.21875,319508.46875,0.28076171875,0.941162109375,0.220703125,-1.8920897245407104,-0.1525878757238388,0.7019042372703552,66.66667175292969,21463.0,1.0
21237.4325125,322765.03125,322922.46875,323579.15625,323112.90625,323022.875,323194.25,323354.125,323474.09375,0.281005859375,0.943603515625,0.219482421875,-1.8920897245407104,-0.1525878757238388,0.5798339247703552,66.66667175292969,21464.0,1.0
21237.4368939,321992.375,322149.375,322805.59375,322339.34375,322249.5,322420.4375,322580.75,322701.0,0.28125,0.94189453125,0.220947265625,-1.8310545682907104,-0.2136230319738388,0.6103515028953552,66.66667175292969,21465.0,1.0
21237.4369015,317666.0625,317821.625,318477.78125,318011.96875,317922.75,318092.15625,318253.1875,318372.8125,0.282470703125,0.94287109375,0.22265625,-1.9226073026657104,-0.2136230319738388,0.6408690810203552,66.66667175292969,21466.0,1.0
21237.4480929,318160.90625,318316.9375,318972.71875,318507.46875,318418.0625,318587.84375,318748.40625,318868.3125,0.28173828125,0.942626953125,0.222412109375,-2.014159917831421,-0.2136230319738388,0.7324218153953552,66.66667175292969,21467.0,1.0
21237.4481012,322317.625,322474.25,323130.59375,322664.78125,322574.75,322746.0625,322906.375,323026.34375,0.280029296875,0.94482421875,0.2177734375,-1.8920897245407104,-0.1525878757238388,0.7324218153953552,66.66667175292969,21468.0,1.0
21237.451195,322600.40625,322757.3125,323413.5625,322947.6875,322857.8125,323029.03125,323189.0625,323309.25,0.28076171875,0.94384765625,0.21875,-1.8920897245407104,-0.2746581733226776,0.7324218153953552,66.66667175292969,21469.0,1.0
21237.4512035,318259.625,318415.09375,319071.4375,318605.71875,318516.21875,318685.90625,318846.3125,318966.375,0.28271484375,0.943603515625,0.217041015625,-1.9226073026657104,-0.1831054538488388,0.7019042372703552,66.66667175292969,21470.0,1.0
21237.4512081,317656.84375,317812.125,318468.21875,318002.65625,317913.15625,318082.78125,318243.53125,318363.40625,0.281494140625,0.94384765625,0.218994140625,-1.9531248807907104,-0.1831054538488388,0.6713866591453552,66.66667175292969,21471.0,1.0
21237.455002,321733.96875,321890.625,322547.03125,322080.6875,321990.84375,322161.96875,322322.0,322442.625,0.28125,0.942626953125,0.22021484375,-1.8920897245407104,-0.2441406100988388,0.7934569716453552,66.66667175292969,21472.0,1.0
21237.4637534,323026.4375,323183.96875,323840.125,323373.6875,323283.5,323455.3125,323615.625,323735.625,0.28125,0.943115234375,0.22216796875,-1.8310545682907104,-0.2136230319738388,0.7324218153953552,66.66667175292969,21473.0,1.0
21237.5011532,319000.34375,319156.8125,319812.53125,319347.25,319257.21875,319427.53125,319588.21875,319708.28125,0.28125,0.9423828125,0.221923828125,-1.9226073026657104,-0.1831054538488388,0.7019042372703552,66.66667175292969,21474.0,1.0
21237.5011594,317318.625,317474.28125,318129.96875,317664.78125,317575.03125,317744.71875,317905.5625,318025.65625,0.279052734375,0.94140625,0.221923828125,-1.9226073026657104,-0.1525878757238388,0.6408690810203552,66.66667175292969,21475.0,1.0
21237.5011616,321038.46875,321195.21875,321851.09375,321385.28125,321295.4375,321466.125,321627.125,321746.75,0.278564453125,0.940185546875,0.221435546875,-1.8920897245407104,-0.1525878757238388,0.7629393935203552,66.66667175292969,21476.0,1.0
21237.5049542,323260.15625,323417.0625,324072.875,323607.0625,323517.28125,323688.5,323848.71875,323968.96875,0.280517578125,0.94189453125,0.221435546875,-1.8920897245407104,-0.2136230319738388,0.7324218153953552,66.66667175292969,21477.0,1.0
21237.50496,319840.4375,319996.34375,320652.5,320186.78125,320097.375,320267.6875,320428.1875,320548.09375,0.28173828125,0.94140625,0.22265625,-1.8920897245407104,-0.1220703050494194,0.6408690810203552,66.66667175292969,21478.0,1.0
21237.5049619,317168.5,317323.8125,317979.96875,317514.6875,317425.09375,317594.53125,317755.46875,317875.4375,0.282470703125,0.942138671875,0.221923828125,-1.8615721464157104,-0.2441406100988388,0.6408690810203552,66.66667175292969,21479.0,1.0
21237.5100094,320282.53125,320438.65625,321095.34375,320629.4375,320539.59375,320710.09375,320870.65625,320990.8125,0.28271484375,0.94189453125,0.222412109375,-1.9836424589157104,-0.2136230319738388,0.6103515028953552,66.66667175292969,21480.0,1.0
21237.5125057,323297.0,323454.15625,324111.03125,323644.59375,323554.3125,323726.15625,323886.1875,324006.625,0.2822265625,0.941650390625,0.2236328125,-1.9531248807907104,-0.1831054538488388,0.7019042372703552,66.66667175292969,21481.0,1.0
21237.515016,320713.5625,320869.84375,321526.09375,321060.5625,320970.71875,321141.21875,321301.5,321422.03125,0.28369140625,0.942626953125,0.22265625,-1.9836424589157104,-0.1525878757238388,0.6408690810203552,66.66667175292969,21482.0,1.0
21237.5175227,317214.71875,317369.9375,318025.71875,317560.71875,317471.21875,317640.3125,317801.5,317921.46875,0.280517578125,0.943115234375,0.223876953125,-2.044677495956421,-0.2136230319738388,0.6103515028953552,66.66667175292969,21483.0,1.0
21237.5200094,319506.21875,319662.3125,320318.3125,319852.84375,319763.4375,319933.125,320093.90625,320213.96875,0.280517578125,0.94189453125,0.22216796875,-1.8615721464157104,-0.1831054538488388,0.6713866591453552,66.66667175292969,21484.0,1.0
21237.5225104,323140.875,323297.96875,323954.03125,323487.6875,323398.375,323569.59375,323729.625,323849.78125,0.280029296875,0.94189453125,0.222412109375,-1.8310545682907104,-0.2136230319738388,0.6713866591453552,66.66667175292969,21485.0,1.0
21237.5250178,321544.6875,321701.34375,322357.15625,321891.59375,321801.75,321972.6875,322132.5625,322252.96875,0.280517578125,0.94140625,0.221923828125,-1.7700194120407104,-0.1831054538488388,0.7324218153953552,66.66667175292969,21486.0,1.0
21237.5275163,317458.0,317613.75,318269.71875,317804.4375,317714.78125,317884.375,318044.6875,318165.28125,0.281005859375,0.942138671875,0.219482421875,-1.9531248807907104,-0.2136230319738388,0.6713866591453552,66.66667175292969,21487.0,1.0
21237.5299954,318773.4375,318929.375,319585.625,319119.96875,319030.5625,319200.4375,319361.03125,319481.46875,0.281982421875,0.9423828125,0.22216796875,-1.9531248807907104,-0.0610351525247097,0.7019042372703552,66.66667175292969,21488.0,1.0
21237.5330977,322802.03125,322958.9375,323615.375,323149.28125,323059.4375,323231.09375,323390.78125,323511.21875,0.281494140625,0.94140625,0.22607421875,-1.8920897245407104,-0.1525878757238388,0.6713866591453552,66.66667175292969,21489.0,1.0
21237.533106,322266.84375,322423.5625,323080.28125,322614.0,322524.34375,322695.375,322855.3125,322975.75,0.27978515625,0.942626953125,0.222412109375,-1.8920897245407104,-0.1831054538488388,0.6713866591453552,66.66667175292969,21490.0,1.0
21237.5350164,317909.875,318065.53125,318721.5,318256.3125,318167.0,318336.40625,318497.09375,318617.0625,0.2802734375,0.9423828125,0.222412109375,-1.9531248807907104,-0.2441406100988388,0.6713866591453552,66.66667175292969,21491.0,1.0
21237.5387469,318161.09375,318317.09375,318973.0,318507.71875,318418.125,318587.9375,318748.59375,318868.5625,0.2802734375,0.942138671875,0.22119140625,-1.8615721464157104,-0.1831054538488388,0.6713866591453552,66.66667175292969,21492.0,1.0
21237.5480907,322322.8125,322479.90625,323136.6875,322670.6875,322580.65625,322751.6875,322911.71875,323032.0625,0.279052734375,0.942626953125,0.220947265625,-1.8615721464157104,-0.1525878757238388,0.6713866591453552,66.66667175292969,21493.0,1.0
21237.5480985,322841.28125,322998.625,323655.40625,323189.4375,323099.3125,323270.25,323431.0,323551.1875,0.28173828125,0.945068359375,0.224609375,-1.8920897245407104,0.0,0.5798339247703552,66.66667175292969,21494.0,1.0
21237.5505905,318544.65625,318700.40625,319356.46875,318890.84375,318801.96875,318971.3125,319132.5,319252.125,0.28125,0.942626953125,0.224365234375,-1.9531248807907104,-0.1220703050494194,0.6713866591453552,66.66667175292969,21495.0,1.0
21237.5505982,317695.46875,317850.75,318506.65625,318041.28125,317952.40625,318121.5,318282.5,318402.5,0.279541015625,0.941162109375,0.223388671875,-1.9836424589157104,-0.1525878757238388,0.6713866591453552,66.66667175292969,21496.0,1.0
21237.5612535,321711.90625,321868.875,322524.78125,322059.40625,321969.375,322140.40625,322300.625,322420.25,0.28173828125,0.942626953125,0.224609375,-1.9226073026657104,-0.0915527269244194,0.7019042372703552,66.66667175292969,21497.0,1.0
21237.5643396,323224.21875,323381.5625,324037.71875,323571.90625,323481.875,323653.1875,323813.59375,323933.375,0.2802734375,0.943603515625,0.2216796875,-1.8920897245407104,-0.0610351525247097,0.6713866591453552,66.66667175292969,21498.0,1.0
21237.5643472,319313.0,319468.9375,320125.1875,319659.5625,319570.15625,319740.125,319900.40625,320020.3125,0.27880859375,0.942626953125,0.220703125,-1.9226073026657104,-0.0915527269244194,0.7324218153953552,66.66667175292969,21499.0,1.0
21237.566245,317404.4375,317560.09375,318215.90625,317750.625,317661.3125,317830.5625,317991.3125,318111.21875,0.2802734375,0.942138671875,0.221923828125,-1.9531248807907104,-0.2136230319738388,0.6408690810203552,66.66667175292969,21500.0,1.0
21237.575018,321010.125,321167.125,321823.21875,321357.75,321267.71875,321438.5625,321598.96875,321719.21875,0.280517578125,0.94091796875,0.219970703125,-1.8920897245407104,-0.2136230319738388,0.7324218153953552,66.66667175292969,21501.0,1.0
21237.5793528,323417.59375,323574.96875,324231.5625,323765.65625,323675.4375,323847.375,324007.25,324127.3125,0.280029296875,0.9423828125,0.21923828125,-1.8920897245407104,-0.1831054538488388,0.6713866591453552,66.66667175292969,21502.0,1.0
21237.5793604,320168.46875,320325.0,320981.09375,320515.90625,320426.03125,320596.53125,320756.9375,320876.65625,0.279296875,0.94091796875,0.219482421875,-1.8615721464157104,-0.0915527269244194,0.7324218153953552,66.66667175292969,21503.0,1.0
21237.5875064,317294.90625,317451.03125,318106.90625,317641.71875,317552.21875,317721.65625,317882.84375,318002.5625,0.27978515625,0.94189453125,0.21826171875,-1.8920897245407104,-0.0915527269244194,0.7629393935203552,66.66667175292969,21504.0,1.0
21237.5918805,320241.15625,320397.78125,321053.78125,320588.3125,320498.90625,320668.96875,320830.0625,320949.875,0.28173828125,0.9423828125,0.2236328125,-1.8310545682907104,-0.1831054538488388,0.7324218153953552,66.66667175292969,21505.0,1.0
21237.5918888,323412.15625,323569.3125,324225.84375,323759.9375,323670.09375,323841.5625,324001.6875,324121.78125,0.282470703125,0.941650390625,0.218505859375,-1.8920897245407104,-0.2441406100988388,0.5493163466453552,66.66667175292969,21506.0,1.0
21237.5975094,321040.0,321196.1875,321852.8125,321386.8125,321297.40625,321467.90625,321628.28125,321748.1875,0.2822265625,0.941650390625,0.219970703125,-1.8920897245407104,-0.1831054538488388,0.6713866591453552,66.66667175292969,21507.0,1.0
21237.6043537,317389.34375,317544.8125,318200.96875,317735.59375,317646.75,317815.71875,317976.46875,318096.625,0.281494140625,0.93994140625,0.221435546875,-1.9531248807907104,-0.1525878757238388,0.7019042372703552,66.66667175292969,21508.0,1.0
21237.6043616,319482.875,319639.15625,320295.5,319829.59375,319740.5625,319910.4375,320070.8125,320191.09375,0.280029296875,0.9404296875,0.220703125,-1.8920897245407104,-0.1525878757238388,0.7324218153953552,66.66667175292969,21509.0,1.0
21237.6098618,323225.65625,323382.8125,324039.59375,323573.34375,323483.5,323654.875,323814.75,323935.25,0.28076171875,0.94189453125,0.219482421875,-1.8920897245407104,-0.2441406100988388,0.7019042372703552,66.66667175292969,21510.0,1.0
21237.618122,321856.28125,322013.1875,322669.96875,322204.0625,322114.125,322284.90625,322445.03125,322565.46875,0.280517578125,0.941162109375,0.2197265625,-1.9226073026657104,-0.2136230319738388,0.6408690810203552,66.66667175292969,21511.0,1.0
21237.6181303,317686.0,317841.375,318497.875,318032.71875,317943.375,318112.53125,318273.125,318393.46875,0.28076171875,0.94140625,0.218017578125,-1.9531248807907104,-0.1831054538488388,0.7629393935203552,66.66667175292969,21512.0,1.0
21237.6200063,318781.3125,318936.96875,319593.40625,319127.84375,319038.90625,319208.0625,319368.96875,319489.21875,0.283203125,0.942138671875,0.221435546875,-1.8920897245407104,-0.2746581733226776,0.7324218153953552,66.66667175292969,21513.0,1.0
21237.623757,322860.25,323016.6875,323673.75,323207.65625,323117.90625,323288.75,323449.59375,323569.21875,0.279296875,0.943603515625,0.21875,-1.8615721464157104,-0.1831054538488388,0.7019042372703552,66.66667175292969,21514.0,1.0
21237.6274976,322549.625,322706.09375,323363.0625,322897.25,322807.125,322978.0625,323138.5625,323258.1875,0.281005859375,0.94287109375,0.219970703125,-1.9226073026657104,-0.1525878757238388,0.7934569716453552,66.66667175292969,21515.0,1.0
21237.6418834,318175.65625,318331.15625,318987.46875,318522.3125,318432.90625,318602.3125,318763.15625,318883.15625,0.27978515625,0.944091796875,0.219970703125,-1.8615721464157104,-0.1220703050494194,0.6713866591453552,66.66667175292969,21516.0,1.0
21237.6418916,318193.46875,318349.28125,319005.71875,318540.1875,318450.9375,318620.375,318781.40625,318901.125,0.282470703125,0.94287109375,0.224365234375,-1.8920897245407104,-0.1525878757238388,0.7324218153953552,66.66667175292969,21517.0,1.0
21237.6437461,322349.28125,322505.75,323162.875,322696.4375,322606.6875,322777.8125,322938.03125,323058.28125,0.280029296875,0.943115234375,0.2236328125,-1.8615721464157104,-0.0915527269244194,0.6713866591453552,66.66667175292969,21518.0,1.0
21237.6462765,323082.21875,323238.96875,323895.84375,323429.40625,323339.375,323511.03125,323671.4375,323791.21875,0.279541015625,0.942626953125,0.226318359375,-2.014159917831421,-0.03051757626235485,0.7934569716453552,66.66667175292969,21519.0,1.0
21237.6499982,318838.1875,318993.90625,319650.25,319184.8125,319095.3125,319265.09375,319426.1875,319546.1875,0.2802734375,0.943115234375,0.221923828125,-2.014159917831421,-0.1525878757238388,0.6408690810203552,66.66667175292969,21520.0,1.0
21237.6587463,317755.53125,317911.125,318567.4375,318102.09375,318012.6875,318182.09375,318343.03125,318463.28125,0.28125,0.94189453125,0.219970703125,-1.9531248807907104,-0.3051757514476776,0.6713866591453552,66.66667175292969,21521.0,1.0
21237.6621022,321711.625,321868.53125,322524.59375,322058.6875,321969.28125,322139.875,322300.0,322420.53125,0.2822265625,0.9423828125,0.218994140625,-1.9531248807907104,-0.1525878757238388,0.6408690810203552,66.66667175292969,21522.0,1.0
21237.6621096,323422.6875,323580.3125,324236.3125,323770.3125,323680.71875,323851.65625,324011.875,324132.40625,0.281982421875,0.94189453125,0.22021484375,-1.9531248807907104,-0.1525878757238388,0.6713866591453552,66.66667175292969,21523.0,1.0
21237.6674974,319633.1875,319789.375,320445.625,319979.8125,319890.65625,320060.375,320221.03125,320341.09375,0.28271484375,0.943115234375,0.220947265625,-1.8615721464157104,-0.1220703050494194,0.6713866591453552,66.66667175292969,21524.0,1.0
21237.6768815,317498.5,317654.0625,318310.5,317844.875,317755.46875,317924.625,318085.625,318205.4375,0.283935546875,0.94189453125,0.22216796875,-1.9226073026657104,-0.1831054538488388,0.6103515028953552,66.66667175292969,21525.0,1.0
21237.6768896,320978.3125,321134.78125,321791.46875,321325.5625,321235.8125,321406.3125,321566.875,321686.6875,0.283203125,0.943115234375,0.22265625,-1.9836424589157104,-0.2136230319738388,0.6103515028953552,66.66667175292969,21526.0,1.0
21237.6793315,323566.90625,323724.1875,324380.875,323914.53125,323824.9375,323995.96875,324156.28125,324276.34375,0.28076171875,0.944091796875,0.220703125,-1.8615721464157104,-0.1831054538488388,0.6408690810203552,66.66667175292969,21527.0,1.0
21237.6793377,320494.625,320651.0625,321307.59375,320841.6875,320752.28125,320922.25,321082.5625,321202.8125,0.280517578125,0.94384765625,0.2216796875,-1.8920897245407104,-0.0915527269244194,0.7019042372703552,66.66667175292969,21528.0,1.0
21237.6874997,317433.84375,317589.59375,318245.84375,317780.84375,317691.78125,317860.5,318021.0,318141.34375,0.279296875,0.94189453125,0.21923828125,-1.8005369901657104,-0.1525878757238388,0.7019042372703552,66.66667175292969,21529.0,1.0
21237.6900071,320212.28125,320368.8125,321025.5,320559.71875,320470.3125,320640.625,320800.65625,320921.28125,0.280517578125,0.9423828125,0.22314453125,-1.8005369901657104,-0.1220703050494194,0.7324218153953552,66.66667175292969,21530.0,1.0
21237.6962491,323524.71875,323682.15625,324338.65625,323872.3125,323782.375,323954.21875,324113.625,324234.40625,0.28076171875,0.941650390625,0.22216796875,-1.9531248807907104,-0.0915527269244194,0.7019042372703552,66.66667175292969,21531.0,1.0
21237.7005971,321360.53125,321517.15625,322173.59375,321707.40625,321618.0,321788.6875,321948.65625,322068.90625,0.280517578125,0.9423828125,0.22314453125,-1.9531248807907104,-0.0915527269244194,0.7019042372703552,66.66667175292969,21532.0,1.0
21237.7006054,317571.8125,317727.1875,318384.0,317918.25,317828.78125,317998.375,318159.03125,318278.84375,0.280029296875,0.9423828125,0.22265625,-1.9226073026657104,-0.1831054538488388,0.7019042372703552,66.66667175292969,21533.0,1.0
21237.7305175,319455.875,319612.34375,320268.78125,319803.3125,319713.8125,319883.34375,320044.09375,320164.15625,0.279052734375,0.94091796875,0.21875,-1.8615721464157104,-0.1525878757238388,0.6408690810203552,66.66667175292969,21534.0,1.0
21237.7305257,323293.6875,323450.84375,324107.8125,323641.5625,323551.25,323722.65625,323882.78125,324003.3125,0.279296875,0.943115234375,0.220947265625,-1.9531248807907104,0.0,0.5493163466453552,66.66667175292969,21535.0,1.0
21237.7305295,322156.96875,322314.0625,322970.65625,322504.9375,322414.4375,322585.75,322745.71875,322866.21875,0.28076171875,0.944580078125,0.221435546875,-1.9226073026657104,-0.1525878757238388,0.6103515028953552,66.66667175292969,21536.0,1.0
21237.7305332,317911.8125,318067.9375,318724.0,318259.0,318169.59375,318338.9375,318499.3125,318619.65625,0.2802734375,0.94384765625,0.22265625,-1.9836424589157104,-0.2136230319738388,0.7324218153953552,66.66667175292969,21537.0,1.0
21237.732515,318769.25,318925.4375,319582.03125,319116.21875,319027.09375,319196.59375,319357.28125,319477.34375,0.2802734375,0.943359375,0.2216796875,-1.8615721464157104,-0.1831054538488388,0.6408690810203552,66.66667175292969,21538.0,1.0
21237.7350211,322890.625,323047.625,323704.9375,323238.6875,323148.9375,323320.15625,323480.09375,323600.625,0.281982421875,0.942138671875,0.221923828125,-1.9836424589157104,-0.1525878757238388,0.7019042372703552,66.66667175292969,21539.0,1.0
21237.7375018,322814.28125,322971.28125,323628.15625,323162.0625,323072.03125,323243.4375,323403.03125,323523.375,0.28173828125,0.942626953125,0.222412109375,-2.014159917831421,-0.2441406100988388,0.7324218153953552,66.66667175292969,21540.0,1.0
21237.7400005,318440.5,318596.59375,319252.9375,318787.65625,318697.8125,318867.6875,319027.71875,319148.3125,0.281005859375,0.943603515625,0.22119140625,-1.9531248807907104,-0.1220703050494194,0.6103515028953552,66.66667175292969,21541.0,1.0
21237.7450139,318218.84375,318374.34375,319030.9375,318565.65625,318476.0,318645.5,318805.90625,318926.5,0.2802734375,0.943115234375,0.221923828125,-1.8615721464157104,-0.1220703050494194,0.6713866591453552,66.66667175292969,21542.0,1.0
21237.7475132,322353.5625,322510.28125,323167.15625,322701.1875,322611.3125,322782.1875,322941.9375,323062.75,0.28173828125,0.94287109375,0.222900390625,-1.9226073026657104,-0.1220703050494194,0.6713866591453552,66.66667175292969,21543.0,1.0
21237.7500021,323308.0,323465.0625,324121.59375,323655.78125,323565.75,323736.875,323896.65625,324017.4375,0.280517578125,0.941162109375,0.224365234375,-1.9226073026657104,-0.2136230319738388,0.6408690810203552,66.66667175292969,21544.0,1.0
21237.752507,319138.5,319294.78125,319951.1875,319485.84375,319395.90625,319565.6875,319725.90625,319846.59375,0.278564453125,0.94091796875,0.223388671875,-1.8920897245407104,-0.1525878757238388,0.6408690810203552,66.66667175292969,21545.0,1.0
21237.7568819,317815.4375,317971.28125,318628.0625,318162.875,318072.84375,318242.8125,318402.84375,318523.46875,0.279296875,0.940185546875,0.2236328125,-1.9226073026657104,-0.0915527269244194,0.6713866591453552,66.66667175292969,21546.0,1.0
21237.7568905,321688.1875,321844.84375,322501.625,322035.71875,321945.875,322116.71875,322276.9375,322397.375,0.27880859375,0.9423828125,0.22412109375,-1.8615721464157104,-0.1220703050494194,0.6408690810203552,66.66667175292969,21547.0,1.0
21237.7700039,323603.28125,323760.46875,324417.25,323951.28125,323861.15625,324032.625,324192.65625,324313.375,0.278564453125,0.942626953125,0.22119140625,-2.014159917831421,-0.1831054538488388,0.7324218153953552,66.66667175292969,21548.0,1.0
21237.7730831,319949.0625,320105.59375,320761.75,320296.03125,320206.53125,320376.875,320537.09375,320657.59375,0.281494140625,0.942626953125,0.22021484375,-1.8920897245407104,-0.2441406100988388,0.7629393935203552,66.66667175292969,21549.0,1.0
21237.7730891,317599.0,317754.75,318410.71875,317945.4375,317856.03125,318025.28125,318186.125,318306.1875,0.281005859375,0.942138671875,0.219970703125,-1.9836424589157104,-0.1525878757238388,0.7934569716453552,66.66667175292969,21550.0,1.0
21237.7749957,320943.0,321099.71875,321755.875,321290.59375,321200.40625,321370.8125,321531.46875,321651.8125,0.279296875,0.941162109375,0.21923828125,-1.9226073026657104,-0.2136230319738388,0.7019042372703552,66.66667175292969,21551.0,1.0
21237.7788198,323705.59375,323862.75,324519.4375,324053.8125,323963.15625,324134.90625,324294.6875,324415.125,0.281494140625,0.941162109375,0.22314453125,-1.9226073026657104,-0.1831054538488388,0.7629393935203552,66.66667175292969,21552.0,1.0
21237.7875021,320821.5625,320978.125,321634.5625,321168.65625,321078.96875,321249.46875,321409.53125,321529.6875,0.28125,0.94091796875,0.223876953125,-1.8615721464157104,-0.2441406100988388,0.6408690810203552,66.66667175292969,21553.0,1.0
21237.7905877,317578.4375,317734.1875,318390.5,317924.625,317835.5625,318005.0,318165.5625,318285.71875,0.28173828125,0.9404296875,0.223388671875,-1.9836424589157104,-0.2746581733226776,0.6408690810203552,66.66667175292969,21554.0,1.0
21237.7905959,320169.875,320326.09375,320982.6875,320516.6875,320427.03125,320597.4375,320757.75,320878.15625,0.281982421875,0.943603515625,0.2197265625,-1.9836424589157104,-0.2441406100988388,0.7019042372703552,66.66667175292969,21555.0,1.0
21237.7993316,323618.21875,323775.59375,324432.09375,323966.03125,323875.71875,324047.125,324207.34375,324327.6875,0.282470703125,0.942626953125,0.221435546875,-1.8920897245407104,-0.2136230319738388,0.6408690810203552,66.66667175292969,21556.0,1.0
21237.7993377,321674.53125,321831.59375,322487.9375,322021.96875,321932.28125,322102.96875,322263.34375,322383.59375,0.281494140625,0.943603515625,0.22119140625,-1.9531248807907104,-0.2441406100988388,0.6103515028953552,66.66667175292969,21557.0,1.0
21237.8012501,317757.875,317913.53125,318569.6875,318104.21875,318015.09375,318184.34375,318345.0,318465.53125,0.28173828125,0.942138671875,0.2216796875,-1.9226073026657104,-0.2441406100988388,0.6408690810203552,66.66667175292969,21558.0,1.0
21237.8049952,319421.8125,319577.75,320234.4375,319768.71875,319679.3125,319849.28125,320009.75,320130.0,0.28125,0.943115234375,0.220703125,-1.9836424589157104,-0.1831054538488388,0.7324218153953552,66.66667175292969,21559.0,1.0
21237.8143382,323345.71875,323503.15625,324159.6875,323693.40625,323603.75,323775.125,323934.90625,324055.34375,0.28125,0.943359375,0.21826171875,-1.9836424589157104,-0.2441406100988388,0.6103515028953552,66.66667175292969,21560.0,1.0
21237.8143464,322445.46875,322602.5625,323259.09375,322792.65625,322702.96875,322874.09375,323033.9375,323154.46875,0.2802734375,0.94287109375,0.21923828125,-1.9226073026657104,-0.1525878757238388,0.6713866591453552,66.66667175292969,21561.0,1.0
21237.8205953,318142.9375,318299.0625,318955.28125,318489.65625,318400.15625,318569.9375,318730.4375,318850.6875,0.2802734375,0.94287109375,0.222412109375,-1.9531248807907104,-0.2136230319738388,0.7324218153953552,66.66667175292969,21562.0,1.0
21237.8206031,318766.5625,318923.09375,319579.34375,319113.625,319023.875,319193.5625,319354.3125,319474.46875,0.280029296875,0.942138671875,0.219482421875,-2.014159917831421,-0.1831054538488388,0.6408690810203552,66.66667175292969,21563.0,1.0
21237.8225062,322914.6875,323071.78125,323728.46875,323262.21875,323172.1875,323343.125,323503.4375,323623.875,0.28076171875,0.94091796875,0.221923828125,-1.9836424589157104,-0.1525878757238388,0.7019042372703552,66.66667175292969,21564.0,1.0
21237.8337574,323072.5625,323229.65625,323886.0,323419.84375,323330.25,323501.09375,323661.40625,323781.5625,0.280517578125,0.942138671875,0.222412109375,-2.014159917831421,-0.2136230319738388,0.7629393935203552,66.66667175292969,21565.0,1.0
21237.8368722,318717.84375,318873.9375,319530.1875,319064.375,318975.21875,319144.5625,319305.5,319425.65625,0.281494140625,0.94384765625,0.2255859375,-1.9531248807907104,-0.2136230319738388,0.6713866591453552,66.66667175292969,21566.0,1.0
21237.8368788,318246.84375,318402.9375,319059.0,318593.375,318504.15625,318673.84375,318834.40625,318954.59375,0.2802734375,0.943359375,0.223876953125,-1.9531248807907104,-0.2136230319738388,0.5493163466453552,66.66667175292969,21567.0,1.0
21237.8450007,322342.21875,322499.84375,323156.09375,322689.8125,322599.78125,322771.0,322931.125,323051.375,0.281005859375,0.9423828125,0.222900390625,-1.9531248807907104,-0.2441406100988388,0.6713866591453552,66.66667175292969,21568.0,1.0
21237.8480959,323519.78125,323677.5,324334.03125,323867.75,323777.8125,323948.9375,324109.34375,324229.40625,0.280517578125,0.942138671875,0.221923828125,-1.9531248807907104,-0.1831054538488388,0.5798339247703552,66.66667175292969,21569.0,1.0
21237.8481039,319443.71875,319599.90625,320256.34375,319790.8125,319701.3125,319871.0,320031.65625,320151.46875,0.281005859375,0.943115234375,0.223388671875,-1.9531248807907104,-0.1831054538488388,0.7019042372703552,66.66667175292969,21570.0,1.0
21237.8500151,317885.28125,318040.75,318697.34375,318232.0,318142.75,318311.9375,318472.5,318592.65625,0.279296875,0.94189453125,0.224365234375,-1.8920897245407104,-0.2136230319738388,0.7629393935203552,66.66667175292969,21571.0,1.0
21237.863752,321659.3125,321816.21875,322472.75,322006.65625,321917.25,322087.84375,322247.96875,322367.96875,0.280029296875,0.9423828125,0.223388671875,-1.7700194120407104,-0.2441406100988388,0.6713866591453552,66.66667175292969,21572.0,1.0
21237.8668796,323774.34375,323931.78125,324588.5625,324122.21875,324032.0,324203.65625,324363.4375,324483.875,0.279296875,0.943603515625,0.220947265625,-1.7395018339157104,-0.1525878757238388,0.5187987685203552,66.66667175292969,21573.0,1.0
21237.866888,320273.5,320429.71875,321086.21875,320620.21875,320531.0,320701.0625,320861.28125,320981.4375,0.28173828125,0.942138671875,0.21875,-1.8920897245407104,-0.2136230319738388,0.5493163466453552,66.66667175292969,21574.0,1.0
21237.8688353,317710.125,317865.875,318522.03125,318056.75,317967.53125,318136.6875,318297.25,318417.6875,0.281005859375,0.943115234375,0.218994140625,-1.9531248807907104,-0.1831054538488388,0.6713866591453552,66.66667175292969,21575.0,1.0
21237.8724977,320905.25,321062.15625,321718.40625,321252.4375,321163.1875,321333.15625,321493.46875,321614.0,0.28271484375,0.943359375,0.218505859375,-1.8920897245407104,-0.1831054538488388,0.6713866591453552,66.66667175292969,21576.0,1.0
21237.8868796,323833.96875,323991.40625,324648.03125,324181.5,324092.09375,324262.9375,324422.96875,324543.40625,0.280517578125,0.94189453125,0.220947265625,-1.9226073026657104,-0.1831054538488388,0.7629393935203552,66.66667175292969,21577.0,1.0
21237.8868877,321144.0625,321300.625,321957.3125,321490.96875,321401.84375,321571.78125,321732.28125,321852.71875,0.28125,0.943115234375,0.218017578125,-1.8310545682907104,-0.1220703050494194,0.7324218153953552,66.66667175292969,21578.0,1.0
21237.8893229,317733.8125,317889.5625,318546.0,318080.28125,317991.21875,318160.28125,318320.96875,318441.21875,0.28076171875,0.943359375,0.21875,-1.8920897245407104,-0.1525878757238388,0.7324218153953552,66.66667175292969,21579.0,1.0
21237.8893291,320133.0625,320289.15625,320945.6875,320479.875,320390.53125,320560.78125,320721.25,320840.875,0.280517578125,0.943359375,0.22314453125,-1.8615721464157104,-0.0915527269244194,0.6408690810203552,66.66667175292969,21580.0,1.0
21237.8974969,323703.875,323861.25,324517.84375,324051.59375,323962.09375,324133.375,324293.59375,324413.59375,0.280517578125,0.94287109375,0.221435546875,-1.9226073026657104,-0.0915527269244194,0.6408690810203552,66.66667175292969,21581.0,1.0
21237.9006204,321985.84375,322142.65625,322799.09375,322332.8125,322243.25,322413.8125,322574.40625,322694.5625,0.2802734375,0.942626953125,0.21923828125,-1.9226073026657104,-0.0610351525247097,0.7019042372703552,66.66667175292969,21582.0,1.0
21237.9006282,317961.28125,318116.84375,318772.90625,318307.53125,318218.3125,318387.46875,318548.59375,318668.3125,0.281005859375,0.941650390625,0.218994140625,-1.9226073026657104,-0.1831054538488388,0.7324218153953552,66.66667175292969,21583.0,1.0
21237.9037489,319405.8125,319561.84375,320218.15625,319752.34375,319662.9375,319832.5625,319994.03125,320113.5625,0.281494140625,0.94287109375,0.219970703125,-1.8310545682907104,-0.0915527269244194,0.7629393935203552,66.66667175292969,21584.0,1.0
21237.9180899,323399.1875,323556.28125,324212.78125,323746.53125,323657.21875,323828.34375,323988.8125,324108.625,0.281005859375,0.943115234375,0.21923828125,-1.8920897245407104,-0.0915527269244194,0.6713866591453552,66.66667175292969,21585.0,1.0
21237.9180989,322730.59375,322887.59375,323543.75,323078.03125,322988.4375,323159.21875,323319.875,323439.9375,0.281494140625,0.942138671875,0.218505859375,-1.8920897245407104,-0.1525878757238388,0.6408690810203552,66.66667175292969,21586.0,1.0
21237.9205941,318387.46875,318543.40625,319198.9375,318733.84375,318644.4375,318814.21875,318974.96875,319094.9375,0.281982421875,0.94091796875,0.217529296875,-1.9531248807907104,-0.1831054538488388,0.7019042372703552,66.66667175292969,21587.0,1.0
21237.9206026,318772.71875,318928.84375,319584.4375,319119.1875,319030.125,319199.8125,319360.21875,319480.46875,0.281005859375,0.94140625,0.220703125,-1.9531248807907104,-0.0915527269244194,0.6103515028953552,66.66667175292969,21588.0,1.0
21237.9287756,322933.625,323091.09375,323747.25,323281.0625,323191.21875,323362.625,323523.0,323643.0,0.27880859375,0.943359375,0.221435546875,-1.9226073026657104,-0.0915527269244194,0.6713866591453552,66.66667175292969,21589.0,1.0
21237.9374387,323321.65625,323479.03125,324135.53125,323669.0,323579.34375,323750.5625,323911.21875,324031.09375,0.2783203125,0.942626953125,0.218994140625,-1.8005369901657104,-0.2746581733226776,0.5187987685203552,66.66667175292969,21590.0,1.0
21237.937446,318997.5,319153.78125,319809.75,319344.40625,319254.71875,319424.40625,319585.15625,319705.15625,0.280029296875,0.942138671875,0.22119140625,-1.9226073026657104,-0.1831054538488388,0.5493163466453552,66.66667175292969,21591.0,1.0
21237.937449,318285.28125,318441.5625,319097.375,318632.09375,318542.875,318711.9375,318872.6875,318993.03125,0.281005859375,0.944091796875,0.218505859375,-1.9836424589157104,-0.2136230319738388,0.7019042372703552,66.66667175292969,21592.0,1.0
21237.9418768,322335.6875,322492.875,323149.09375,322683.03125,322593.71875,322764.3125,322925.0625,323044.9375,0.280029296875,0.944091796875,0.220947265625,-1.8920897245407104,-0.1831054538488388,0.7019042372703552,66.66667175292969,21593.0,1.0
21237.9418848,323724.25,323882.0625,324538.21875,324071.96875,323982.375,324153.875,324314.25,324434.15625,0.281982421875,0.94189453125,0.22021484375,-1.8920897245407104,-0.1220703050494194,0.6713866591453552,66.66667175292969,21594.0,1.0
21237.9437509,319748.15625,319904.34375,320560.59375,320094.78125,320005.375,320175.25,320336.1875,320456.09375,0.2802734375,0.942138671875,0.219970703125,-1.8920897245407104,-0.0915527269244194,0.6103515028953552,66.66667175292969,21595.0,1.0
21237.9575015,317962.4375,318118.34375,318774.6875,318308.875,318219.46875,318388.625,318550.0,318669.71875,0.279052734375,0.942138671875,0.223876953125,-1.9531248807907104,-0.0610351525247097,0.5798339247703552,66.66667175292969,21596.0,1.0
21237.9624279,321631.59375,321788.4375,322445.03125,321978.9375,321889.53125,322059.6875,322220.4375,322340.34375,0.278564453125,0.941162109375,0.22265625,-2.014159917831421,-0.1220703050494194,0.6103515028953552,66.66667175292969,21597.0,1.0
21237.9624343,323935.71875,324093.0625,324750.125,324283.6875,324193.75,324365.21875,324525.53125,324645.5,0.27880859375,0.942626953125,0.22119140625,-1.9226073026657104,-0.1525878757238388,0.5798339247703552,66.66667175292969,21598.0,1.0
21237.9624373,320592.34375,320748.34375,321404.96875,320939.3125,320849.75,321020.0625,321181.0,321300.34375,0.280517578125,0.943359375,0.219482421875,-1.9226073026657104,-0.1220703050494194,0.7019042372703552,66.66667175292969,21599.0,1.0
21237.9649976,317829.9375,317985.15625,318641.46875,318176.03125,318086.71875,318256.5,318417.25,318536.6875,0.280517578125,0.942626953125,0.22021484375,-1.9836424589157104,-0.1525878757238388,0.7019042372703552,66.66667175292969,21600.0,1.0
21237.976261,320867.0,321023.46875,321680.0625,321214.0,321124.03125,321295.0625,321455.46875,321575.0,0.280517578125,0.941162109375,0.220947265625,-1.9226073026657104,-0.2441406100988388,0.6713866591453552,66.66667175292969,21601.0,1.0
21237.9805913,323952.4375,324109.6875,324766.46875,324299.875,324209.75,324381.75,324541.90625,324661.78125,0.280029296875,0.94189453125,0.221435546875,-1.9836424589157104,-0.2441406100988388,0.7019042372703552,66.66667175292969,21602.0,1.0
21237.9805991,321466.1875,321622.75,322279.90625,321813.375,321723.96875,321894.5625,322055.03125,322174.84375,0.281982421875,0.943359375,0.22265625,-1.9531248807907104,-0.3356933295726776,0.5798339247703552,66.66667175292969,21603.0,1.0
21237.9893362,317896.53125,318052.65625,318708.96875,318243.34375,318153.9375,318323.28125,318484.375,318603.84375,0.281982421875,0.94287109375,0.220947265625,-1.9531248807907104,-0.1831054538488388,0.6713866591453552,66.66667175292969,21604.0,1.0
21237.9893441,320093.8125,320249.90625,320906.5,320440.71875,320351.21875,320521.25,320681.9375,320801.71875,0.279296875,0.94287109375,0.2216796875,-1.9836424589157104,-0.1220703050494194,0.6713866591453552,66.66667175292969,21605.0,1.0
21237.9955856,323781.84375,323939.03125,324595.8125,324129.375,324039.96875,324210.8125,324371.3125,324491.5625,0.279296875,0.942138671875,0.21875,-1.8920897245407104,-0.1831054538488388,0.6408690810203552,66.66667175292969,21606.0,1.0
21237.9955942,322294.125,322451.28125,323107.71875,322641.71875,322552.0625,322722.8125,322883.40625,323003.28125,0.279541015625,0.9423828125,0.220703125,-1.9836424589157104,-0.2441406100988388,0.7324218153953552,66.66667175292969,21607.0,1.0
21238.0000119,318172.0,318328.03125,318984.09375,318518.71875,318429.21875,318598.90625,318759.84375,318879.125,0.28125,0.942138671875,0.2216796875,-1.9531248807907104,-0.3051757514476776,0.6713866591453552,66.66667175292969,21608.0,1.0
21238.0062615,319389.28125,319545.5625,320201.90625,319736.09375,319646.78125,319816.46875,319977.21875,320097.1875,0.281982421875,0.943115234375,0.221923828125,-1.9226073026657104,-0.2746581733226776,0.6103515028953552,66.66667175292969,21609.0,1.0
21238.0155829,323442.8125,323600.0,324256.9375,323790.5,323700.75,323871.53125,324032.0,324152.34375,0.281005859375,0.943603515625,0.21923828125,-2.014159917831421,-0.1525878757238388,0.6408690810203552,66.66667175292969,21610.0,1.0
21238.0155914,323009.09375,323166.28125,323822.6875,323356.34375,323266.59375,323437.71875,323598.1875,323718.28125,0.28076171875,0.94140625,0.220947265625,-1.8920897245407104,-0.1525878757238388,0.6408690810203552,66.66667175292969,21611.0,1.0
21238.0218764,318639.6875,318795.71875,319451.9375,318986.0625,318896.71875,319066.15625,319227.53125,319346.90625,0.280029296875,0.941650390625,0.2197265625,-1.8615721464157104,-0.0915527269244194,0.6408690810203552,66.66667175292969,21612.0,1.0
21238.0218848,318784.4375,318940.28125,319596.6875,319131.15625,319041.9375,319211.34375,319372.125,319492.0,0.278564453125,0.94140625,0.222900390625,-1.8920897245407104,-0.2441406100988388,0.6713866591453552,66.66667175292969,21613.0,1.0
21238.0255929,322944.375,323101.53125,323758.25,323291.28125,323202.3125,323373.25,323533.5625,323653.375,0.279052734375,0.942626953125,0.22119140625,-1.9836424589157104,-0.1220703050494194,0.6103515028953552,66.66667175292969,21614.0,1.0
21238.0256011,323558.15625,323715.5,324372.65625,323905.21875,323815.8125,323987.3125,324147.59375,324267.59375,0.281005859375,0.94189453125,0.22119140625,-2.014159917831421,-0.0915527269244194,0.6713866591453552,66.66667175292969,21615.0,1.0
21238.0335981,319282.53125,319438.4375,320095.40625,319629.0625,319539.9375,319709.625,319870.1875,319990.09375,0.281982421875,0.9423828125,0.21875,-2.014159917831421,-0.1525878757238388,0.6408690810203552,66.66667175292969,21616.0,1.0
21238.0405809,318322.5625,318478.21875,319134.65625,318668.9375,318579.96875,318748.9375,318910.0625,319029.5,0.280517578125,0.94384765625,0.222412109375,-2.014159917831421,-0.2136230319738388,0.7324218153953552,66.66667175292969,21617.0,1.0
21238.0405876,322309.03125,322465.875,323122.46875,322656.03125,322566.71875,322737.375,322897.6875,323017.6875,0.28076171875,0.94287109375,0.22119140625,-1.9531248807907104,-0.1220703050494194,0.7324218153953552,66.66667175292969,21618.0,1.0
21238.0424928,323916.65625,324073.75,324730.53125,324264.28125,324174.6875,324346.0,324505.9375,324626.03125,0.281005859375,0.939208984375,0.219970703125,-1.9226073026657104,-0.1220703050494194,0.6713866591453552,66.66667175292969,21619.0,1.0
21238.0487444,320059.90625,320216.375,320872.71875,320407.09375,320317.40625,320487.28125,320648.5,320767.9375,0.280029296875,0.940185546875,0.220703125,-1.8920897245407104,-0.1525878757238388,0.6713866591453552,66.66667175292969,21620.0,1.0
21238.0551893,318047.375,318203.5625,318859.53125,318394.0,318304.875,318474.03125,318635.40625,318754.9375,0.280517578125,0.943359375,0.220703125,-1.8005369901657104,-0.1831054538488388,0.6713866591453552,66.66667175292969,21621.0,1.0
21238.0620785,321599.96875,321756.78125,322413.46875,321947.3125,321857.90625,322028.21875,322188.6875,322308.78125,0.281005859375,0.9443359375,0.22314453125,-1.9226073026657104,-0.1220703050494194,0.6713866591453552,66.66667175292969,21622.0,1.0
21238.0620861,324087.625,324244.78125,324902.125,324435.40625,324345.28125,324516.84375,324677.0,324797.0625,0.279541015625,0.94287109375,0.22021484375,-1.8920897245407104,-0.1525878757238388,0.7019042372703552,66.66667175292969,21623.0,1.0
21238.0643269,320913.03125,321068.96875,321725.40625,321259.9375,321170.09375,321340.40625,321501.0625,321620.6875,0.2802734375,0.942138671875,0.22216796875,-1.9836424589157104,-0.1220703050494194,0.7019042372703552,66.66667175292969,21624.0,1.0
21238.0643351,317957.0625,318112.71875,318768.875,318303.59375,318213.84375,318383.34375,318544.1875,318663.5625,0.279296875,0.94287109375,0.222412109375,-1.9226073026657104,-0.1831054538488388,0.7629393935203552,66.66667175292969,21625.0,1.0
21238.0749896,320828.1875,320985.09375,321641.625,321175.90625,321085.78125,321256.375,321416.59375,321536.21875,0.280029296875,0.942138671875,0.22412109375,-1.8920897245407104,-0.2136230319738388,0.7324218153953552,66.66667175292969,21626.0,1.0
21238.0780832,324064.8125,324222.25,324879.21875,324412.59375,324322.5625,324493.78125,324654.09375,324774.0,0.280029296875,0.9423828125,0.223388671875,-1.8005369901657104,-0.2746581733226776,0.5493163466453552,66.66667175292969,21627.0,1.0
21238.0780911,321784.75,321941.5,322598.09375,322131.9375,322041.96875,322212.5625,322373.3125,322493.125,0.281494140625,0.940673828125,0.223388671875,-1.8005369901657104,-0.2441406100988388,0.7019042372703552,66.66667175292969,21628.0,1.0
21238.07999,318072.3125,318227.875,318884.21875,318418.59375,318329.1875,318498.59375,318659.71875,318779.0625,0.2822265625,0.943115234375,0.222900390625,-1.8005369901657104,-0.2746581733226776,0.7629393935203552,66.66667175292969,21629.0,1.0
21238.0937571,320068.875,320225.5,320881.75,320415.75,320326.09375,320496.59375,320657.34375,320776.96875,0.28125,0.943115234375,0.223876953125,-1.8920897245407104,-0.1831054538488388,0.6713866591453552,66.66667175292969,21630.0,1.0
21238.0962583,323856.84375,324014.75,324671.71875,324204.75,324114.71875,324286.625,324446.40625,324566.46875,0.282470703125,0.9423828125,0.221923828125,-1.8920897245407104,-0.2441406100988388,0.6713866591453552,66.66667175292969,21631.0,1.0
21238.0988285,322593.0,322750.1875,323407.0625,322940.78125,322850.75,323021.96875,323181.90625,323301.8125,0.2822265625,0.9404296875,0.218994140625,-1.9226073026657104,-0.3051757514476776,0.7019042372703552,66.66667175292969,21632.0,1.0
21238.1012489,318387.75,318544.125,319200.1875,318734.625,318645.5,318815.09375,318975.59375,319095.21875,0.281494140625,0.941650390625,0.220703125,-1.8920897245407104,-0.1525878757238388,0.7324218153953552,66.66667175292969,21633.0,1.0
21238.1099977,319381.6875,319538.3125,320194.375,319728.5,319639.71875,319809.3125,319969.875,320089.59375,0.280029296875,0.943603515625,0.22119140625,-1.8310545682907104,-0.1525878757238388,0.7019042372703552,66.66667175292969,21634.0,1.0
21238.1130925,323479.90625,323637.53125,324294.40625,323827.53125,323737.6875,323909.34375,324069.09375,324189.1875,0.27978515625,0.943603515625,0.2216796875,-1.8310545682907104,-0.1831054538488388,0.6408690810203552,66.66667175292969,21635.0,1.0
21238.1131005,323275.34375,323432.96875,324089.5,323622.78125,323532.9375,323704.3125,323864.1875,323984.25,0.28076171875,0.944091796875,0.221923828125,-1.9226073026657104,-0.2136230319738388,0.7324218153953552,66.66667175292969,21636.0,1.0
21238.1150167,318899.3125,319056.25,319712.125,319246.40625,319157.09375,319326.6875,319487.28125,319606.96875,0.279052734375,0.94482421875,0.220947265625,-1.9226073026657104,-0.2441406100988388,0.6713866591453552,66.66667175292969,21637.0,1.0
21238.1425181,318805.0,318961.5625,319617.34375,319151.53125,319062.59375,319231.75,319392.3125,319512.46875,0.2802734375,0.94287109375,0.222412109375,-1.8310545682907104,-0.1525878757238388,0.6408690810203552,66.66667175292969,21638.0,1.0
21238.1480852,322950.8125,323108.15625,323764.5,323297.78125,323208.84375,323379.15625,323539.46875,323659.96875,0.279052734375,0.943115234375,0.22119140625,-1.8920897245407104,-0.2441406100988388,0.6713866591453552,66.66667175292969,21639.0,1.0
21238.1481015,323784.96875,323942.875,324599.28125,324132.75,324043.34375,324214.125,324374.25,324494.6875,0.281005859375,0.941650390625,0.22216796875,-1.8920897245407104,-0.2136230319738388,0.6713866591453552,66.66667175292969,21640.0,1.0
21238.1500061,319576.59375,319732.96875,320389.375,319923.3125,319834.0625,320003.6875,320164.09375,320284.25,0.279296875,0.94140625,0.22265625,-1.9836424589157104,-0.2136230319738388,0.6713866591453552,66.66667175292969,21641.0,1.0
21238.1525085,318386.125,318542.15625,319198.21875,318732.59375,318643.1875,318812.78125,318973.1875,319093.4375,0.2822265625,0.940673828125,0.22265625,-1.9226073026657104,-0.1831054538488388,0.5798339247703552,66.66667175292969,21642.0,1.0
21238.1549988,322303.3125,322460.5,323116.9375,322650.9375,322560.8125,322731.75,322891.78125,323012.3125,0.280029296875,0.94140625,0.224609375,-1.8310545682907104,-0.1831054538488388,0.7019042372703552,66.66667175292969,21643.0,1.0
21238.1574955,324108.625,324266.4375,324922.9375,324456.875,324366.5625,324537.875,324698.09375,324818.4375,0.281005859375,0.943115234375,0.223388671875,-1.9226073026657104,-0.2441406100988388,0.7324218153953552,66.66667175292969,21644.0,1.0
21238.1599998,320375.96875,320531.90625,321188.78125,320723.0625,320633.46875,320803.15625,320964.0,321083.8125,0.281494140625,0.941650390625,0.222900390625,-1.9226073026657104,-0.3356933295726776,0.7019042372703552,66.66667175292969,21645.0,1.0
21238.16251,318145.90625,318301.46875,318957.8125,318492.53125,318403.375,318572.09375,318733.125,318853.28125,0.28173828125,0.943603515625,0.220947265625,-1.8615721464157104,-0.2441406100988388,0.7019042372703552,66.66667175292969,21646.0,1.0
21238.1649991,321566.875,321723.5,322380.03125,321914.125,321824.8125,321994.875,322155.34375,322275.59375,0.279052734375,0.943115234375,0.220458984375,-1.9531248807907104,-0.1525878757238388,0.5798339247703552,66.66667175292969,21647.0,1.0
21238.1680771,324232.53125,324390.25,325046.78125,324580.6875,324490.84375,324662.0625,324821.90625,324942.4375,0.279541015625,0.943359375,0.2216796875,-1.8310545682907104,-0.1220703050494194,0.6408690810203552,66.66667175292969,21648.0,1.0
21238.168083,321241.0,321397.71875,322054.0625,321588.25,321498.5625,321669.4375,321829.28125,321949.71875,0.279052734375,0.943359375,0.222412109375,-2.044677495956421,-0.1831054538488388,0.7019042372703552,66.66667175292969,21649.0,1.0
21238.1699954,318101.0,318256.75,318912.75,318447.71875,318358.5,318527.75,318688.3125,318808.3125,0.28125,0.942626953125,0.221923828125,-1.9531248807907104,-0.2746581733226776,0.6103515028953552,66.66667175292969,21650.0,1.0
21238.1743381,320795.03125,320951.5625,321607.8125,321142.625,321053.0625,321223.0,321383.0625,321503.3125,0.280517578125,0.943359375,0.22216796875,-1.9226073026657104,-0.3051757514476776,0.6103515028953552,66.66667175292969,21651.0,1.0
21238.1743459,324166.75,324324.8125,324981.0625,324515.25,324424.9375,324596.34375,324756.5625,324876.8125,0.2783203125,0.94140625,0.2236328125,-1.8920897245407104,-0.2441406100988388,0.7019042372703552,66.66667175292969,21652.0,1.0
21238.1824998,322099.1875,322256.90625,322912.71875,322447.0,322357.21875,322527.71875,322688.21875,322808.28125,0.279052734375,0.943115234375,0.22216796875,-1.9226073026657104,-0.2441406100988388,0.7934569716453552,66.66667175292969,21653.0,1.0
21238.1968755,318255.875,318411.875,319067.6875,318602.59375,318513.09375,318682.0625,318843.0,318963.0,0.279052734375,0.942626953125,0.22265625,-1.8920897245407104,-0.1220703050494194,0.7629393935203552,66.66667175292969,21654.0,1.0
21238.1968825,320042.65625,320198.9375,320854.9375,320389.28125,320299.875,320469.3125,320630.25,320750.5,0.2802734375,0.94189453125,0.2236328125,-1.9226073026657104,-0.0610351525247097,0.7934569716453552,66.66667175292969,21655.0,1.0
21238.1987498,323917.21875,324074.90625,324731.0625,324264.46875,324174.875,324346.0,324506.5,324626.75,0.28076171875,0.94189453125,0.220458984375,-1.8615721464157104,-0.1525878757238388,0.7629393935203552,66.66667175292969,21656.0,1.0
21238.2018721,322886.875,323044.3125,323700.9375,323234.5,323144.71875,323315.84375,323476.15625,323596.15625,0.281005859375,0.943603515625,0.219970703125,-1.9226073026657104,-0.1831054538488388,0.6713866591453552,66.66667175292969,21657.0,1.0
21238.2018799,318616.875,318773.34375,319429.40625,318963.875,318874.375,319043.8125,319204.28125,319324.625,0.28173828125,0.9423828125,0.219970703125,-1.9836424589157104,-0.1831054538488388,0.6713866591453552,66.66667175292969,21658.0,1.0
21238.2037446,319375.0625,319531.53125,320187.25,319722.0625,319632.28125,319801.8125,319962.65625,320082.8125,0.280517578125,0.9423828125,0.2216796875,-1.9226073026657104,-0.1831054538488388,0.7629393935203552,66.66667175292969,21659.0,1.0
21238.218076,323507.53125,323664.8125,324321.40625,323855.25,323765.03125,323936.34375,324096.5625,324216.625,0.2822265625,0.943603515625,0.220947265625,-1.9531248807907104,-0.03051757626235485,0.7019042372703552,66.66667175292969,21660.0,1.0
21238.2180839,323536.59375,323693.96875,324350.90625,323884.3125,323794.4375,323965.75,324125.875,324246.125,0.28271484375,0.94140625,0.22265625,-1.9836424589157104,-0.1831054538488388,0.6408690810203552,66.66667175292969,21661.0,1.0
21238.2200018,319167.375,319323.65625,319979.90625,319514.28125,319424.78125,319594.46875,319754.9375,319875.28125,0.281005859375,0.941650390625,0.220947265625,-1.8615721464157104,-0.2136230319738388,0.7324218153953552,66.66667175292969,21662.0,1.0
21238.2230921,318830.9375,318987.03125,319642.9375,319177.375,319087.96875,319257.84375,319417.96875,319538.59375,0.28173828125,0.943359375,0.219482421875,-1.8920897245407104,-0.1525878757238388,0.6713866591453552,66.66667175292969,21663.0,1.0
21238.2230997,322947.0625,323104.3125,323760.65625,323294.5625,323204.53125,323375.5,323535.96875,323656.21875,0.2802734375,0.94287109375,0.218994140625,-1.8615721464157104,-0.1220703050494194,0.7629393935203552,66.66667175292969,21664.0,1.0
21238.2249929,324000.875,324158.25,324814.84375,324348.5,324258.65625,324429.875,324590.0,324710.15625,0.281982421875,0.941650390625,0.220458984375,-1.9226073026657104,-0.1220703050494194,0.7324218153953552,66.66667175292969,21665.0,1.0
21238.2337466,319872.625,320029.0625,320684.96875,320219.6875,320130.0,320300.0625,320460.375,320580.0,0.279296875,0.941162109375,0.2197265625,-1.8920897245407104,-0.1525878757238388,0.6713866591453552,66.66667175292969,21666.0,1.0
21238.2380843,318449.15625,318605.0,319260.875,318795.71875,318706.46875,318875.90625,319036.5625,319156.0,0.2822265625,0.943603515625,0.221435546875,-1.9226073026657104,-0.2136230319738388,0.6408690810203552,66.66667175292969,21667.0,1.0
21238.2380926,322277.65625,322434.46875,323090.8125,322625.28125,322535.40625,322706.375,322866.5,322986.21875,0.281494140625,0.94287109375,0.22119140625,-1.9531248807907104,-0.1525878757238388,0.6408690810203552,66.66667175292969,21668.0,1.0
