Time,FZ,C3,CZ,C4,PZ,PO7,OZ,PO8,AccX,AccY,AccZ,Gyro1,Gyro2,Gyro3,Battery,Counter,Validation
23568.1851384,284769.09375,295998.34375,-593372.0625,-566649.75,-400891.875,-637979.0,-541748.125,-750000.125,0.579345703125,0.7001953125,0.41259765625,-2.197265386581421,-0.3051757514476776,0.8239745497703552,60.0,189944.0,1.0
23568.1882357,286177.53125,287160.5625,-592551.125,-567154.0,-412192.65625,-639643.375,-544095.5,-750000.125,0.579345703125,0.699951171875,0.414794921875,-2.136230230331421,-0.3356933295726776,0.7324218153953552,60.0,189945.0,1.0
23568.188242,288126.875,281855.5,-592342.625,-567568.5,-421703.84375,-640879.1875,-546238.9375,-750000.125,0.580810546875,0.700439453125,0.4111328125,-2.075195074081421,-0.3662109076976776,0.5798339247703552,60.0,189946.0,1.0
23568.1901465,287075.1875,289991.53125,-593152.3125,-567127.25,-411613.5625,-639389.75,-544195.5625,-750000.125,0.57958984375,0.701904296875,0.41162109375,-2.044677495956421,-0.3356933295726776,0.6103515028953552,60.0,189947.0,1.0
23568.1926523,284907.5,296430.8125,-593455.375,-566651.375,-400863.4375,-637952.0,-541754.1875,-750000.125,0.581787109375,0.701416015625,0.410888671875,-2.014159917831421,-0.3356933295726776,0.7629393935203552,60.0,189948.0,1.0
23568.2013968,285770.8125,289146.46875,-592700.8125,-567042.875,-409562.125,-639277.875,-543524.0,-750000.125,0.580810546875,0.70068359375,0.41357421875,-1.9836424589157104,-0.2441406100988388,0.7324218153953552,60.0,189949.0,1.0
23568.2044015,287958.78125,281840.59375,-592293.25,-567566.0,-421462.90625,-640877.1875,-546159.1875,-750000.125,0.5791015625,0.699951171875,0.416015625,-2.014159917831421,-0.3356933295726776,0.8239745497703552,60.0,189950.0,1.0
23568.204408,287483.59375,288112.125,-593000.9375,-567259.0625,-414413.53125,-639795.125,-544791.6875,-750000.125,0.580322265625,0.700439453125,0.41552734375,-1.9836424589157104,-0.3051757514476776,0.7629393935203552,60.0,189951.0,1.0
23568.211401,285106.25,296462.1875,-593510.75,-566681.5,-401397.03125,-638012.25,-541902.625,-750000.125,0.578857421875,0.69970703125,0.4150390625,-1.9531248807907104,-0.4272460639476776,0.7019042372703552,60.0,189952.0,1.0
23568.2140073,285403.8125,291155.71875,-592870.0625,-566934.5,-406993.09375,-638912.6875,-542976.3125,-750000.125,0.580322265625,0.698974609375,0.412109375,-2.014159917831421,-0.2746581733226776,0.7324218153953552,60.0,189953.0,1.0
23568.223217,287718.5625,282457.3125,-592294.0625,-567522.0625,-420292.9375,-640745.25,-545895.9375,-750000.125,0.5791015625,0.700927734375,0.41357421875,-1.9226073026657104,-0.2746581733226776,0.7324218153953552,60.0,189954.0,1.0
23568.2232234,287902.65625,286334.0,-592843.0625,-567372.125,-416813.46875,-640153.625,-545307.5,-750000.125,0.578369140625,0.700439453125,0.413330078125,-2.044677495956421,-0.2441406100988388,0.7324218153953552,60.0,189955.0,1.0
23568.2251476,285476.3125,295987.71875,-593529.25,-566736.625,-402466.15625,-638156.125,-542183.25,-750000.125,0.57861328125,0.7001953125,0.415771484375,-2.075195074081421,-0.2746581733226776,0.7324218153953552,60.0,189956.0,1.0
23568.231374,285168.65625,292980.5,-593039.5625,-566834.1875,-404593.5,-638574.625,-542490.0,-750000.125,0.578369140625,0.699462890625,0.413818359375,-2.075195074081421,-0.3356933295726776,0.7629393935203552,60.0,189957.0,1.0
23568.240712,287436.65625,283414.0625,-592329.375,-567453.5,-418567.375,-640538.5,-545526.0,-750000.125,0.581298828125,0.7001953125,0.4140625,-2.014159917831421,-0.3356933295726776,0.7629393935203552,60.0,189958.0,1.0
23568.240718,288200.09375,284797.90625,-592698.625,-567466.75,-418765.59375,-640458.0625,-545728.875,-750000.125,0.580810546875,0.70068359375,0.410888671875,-2.014159917831421,-0.1525878757238388,0.7934569716453552,60.0,189959.0,1.0
23568.2432896,285948.125,295019.71875,-593498.1875,-566822.0,-404174.0,-638400.375,-542600.625,-750000.125,0.578857421875,0.701171875,0.412109375,-1.9226073026657104,-0.2136230319738388,0.7019042372703552,60.0,189960.0,1.0
23568.2432989,285073.53125,294443.46875,-593184.375,-566765.6875,-402810.0,-638327.25,-542145.625,-750000.125,0.578369140625,0.699462890625,0.41015625,-1.9531248807907104,-0.2746581733226776,0.7629393935203552,60.0,189961.0,1.0
23568.2563901,287157.0,284571.96875,-592386.25,-567384.1875,-416658.25,-640311.0625,-545124.9375,-750000.125,0.57958984375,0.70166015625,0.409912109375,-2.044677495956421,-0.1831054538488388,0.7019042372703552,60.0,189962.0,1.0
23568.2607221,288415.46875,283598.78125,-592571.6875,-567544.6875,-420231.9375,-640705.5625,-546048.125,-750000.125,0.580078125,0.699462890625,0.410400390625,-1.9531248807907104,-0.2441406100988388,0.6713866591453552,60.0,189963.0,1.0
23568.2607281,286459.0,293689.6875,-593429.5625,-566932.375,-406349.71875,-638721.75,-543118.25,-750000.125,0.579833984375,0.701171875,0.4111328125,-1.9836424589157104,-0.2746581733226776,0.6408690810203552,60.0,189964.0,1.0
23568.2669629,285057.8125,295665.65625,-593320.0,-566717.9375,-401448.34375,-638138.5625,-541900.5625,-750000.125,0.579833984375,0.700439453125,0.415283203125,-1.9836424589157104,-0.3356933295726776,0.6713866591453552,60.0,189965.0,1.0
23568.2669708,286817.5,286161.71875,-592489.0,-567290.1875,-414209.21875,-640001.75,-544614.3125,-750000.125,0.578857421875,0.699462890625,0.4150390625,-2.014159917831421,-0.3051757514476776,0.7629393935203552,60.0,189966.0,1.0
23568.268892,288508.375,282819.125,-592468.25,-567590.3125,-421022.03125,-640857.8125,-546217.625,-750000.125,0.577880859375,0.698974609375,0.4140625,-2.014159917831421,-0.3051757514476776,0.7019042372703552,60.0,189967.0,1.0
23568.2882363,287003.84375,292062.9375,-593323.125,-567056.625,-408856.0625,-639094.25,-543698.5,-750000.125,0.580078125,0.69970703125,0.41552734375,-2.014159917831421,-0.2746581733226776,0.7629393935203552,60.0,189968.0,1.0
23568.2882427,285075.78125,296426.0625,-593431.75,-566695.9375,-400634.21875,-638033.0,-541786.75,-750000.125,0.577880859375,0.701171875,0.415283203125,-2.044677495956421,-0.4882812201976776,0.7324218153953552,60.0,189969.0,1.0
23568.2907264,286293.3125,287797.40625,-592620.5,-567184.75,-411582.28125,-639654.3125,-544061.75,-750000.125,0.577880859375,0.701171875,0.4140625,-1.9836424589157104,-0.3967284858226776,0.7934569716453552,60.0,189970.0,1.0
23568.2907326,288316.15625,282277.15625,-592392.6875,-567608.1875,-421248.25,-640924.3125,-546251.875,-750000.125,0.57958984375,0.699951171875,0.411376953125,-1.9531248807907104,-0.3967284858226776,0.7629393935203552,60.0,189971.0,1.0
23568.2944559,287350.71875,290088.09375,-593189.75,-567187.25,-411587.375,-639491.5625,-544305.4375,-750000.125,0.580322265625,0.699951171875,0.411376953125,-2.105712652206421,-0.3662109076976776,0.7019042372703552,60.0,189972.0,1.0
23568.2944632,285081.21875,296742.03125,-593526.0,-566697.3125,-400463.78125,-638002.5625,-541799.3125,-750000.125,0.5791015625,0.698486328125,0.40966796875,-2.105712652206421,-0.3662109076976776,0.7934569716453552,60.0,189973.0,1.0
23568.3087723,285765.625,289562.65625,-592783.25,-567070.125,-408855.8125,-639278.3125,-543484.125,-750000.125,0.578857421875,0.70068359375,0.41552734375,-2.044677495956421,-0.3356933295726776,0.6713866591453552,60.0,189974.0,1.0
23568.3087817,288019.125,282036.375,-592350.9375,-567602.9375,-420959.90625,-640912.6875,-546164.125,-750000.125,0.581787109375,0.70068359375,0.416259765625,-2.014159917831421,-0.4272460639476776,0.7019042372703552,60.0,189975.0,1.0
23568.3163915,287654.53125,287938.21875,-593037.0625,-567317.5,-414363.375,-639895.4375,-544897.375,-750000.125,0.579345703125,0.70068359375,0.414306640625,-1.9226073026657104,-0.3356933295726776,0.7324218153953552,60.0,189976.0,1.0
23568.316398,285245.28125,296419.09375,-593566.0,-566731.4375,-401149.09375,-638082.0,-541975.375,-750000.125,0.579833984375,0.69970703125,0.413818359375,-2.136230230331421,-0.3051757514476776,0.7324218153953552,60.0,189977.0,1.0
23568.3164025,285379.3125,291228.40625,-592941.0,-566970.25,-406429.03125,-638936.375,-542974.0625,-750000.125,0.58154296875,0.69921875,0.412109375,-2.014159917831421,-0.3356933295726776,0.6103515028953552,60.0,189978.0,1.0
23568.3207238,287672.15625,282382.375,-592349.0625,-567564.8125,-419898.28125,-640793.25,-545916.8125,-750000.125,0.58251953125,0.69970703125,0.413818359375,-1.9531248807907104,-0.3051757514476776,0.6103515028953552,60.0,189979.0,1.0
23568.3207301,287914.09375,285989.96875,-592881.1875,-567434.0,-416815.15625,-640257.4375,-545413.1875,-750000.125,0.580078125,0.69921875,0.4150390625,-1.9531248807907104,-0.3356933295726776,0.6103515028953552,60.0,189980.0,1.0
23568.3238831,285489.375,295719.0625,-593577.3125,-566792.6875,-402362.875,-638242.375,-542272.0625,-750000.125,0.580322265625,0.700927734375,0.413330078125,-2.075195074081421,-0.2746581733226776,0.6103515028953552,60.0,189981.0,1.0
23568.3382063,285019.53125,292793.65625,-593103.9375,-566875.25,-404189.03125,-638612.25,-542503.875,-750000.125,0.57958984375,0.7001953125,0.411376953125,-2.075195074081421,-0.3051757514476776,0.7629393935203552,60.0,189982.0,1.0
23568.3382112,287185.78125,283230.78125,-592397.625,-567486.5,-418076.96875,-640556.75,-545503.5,-750000.125,0.57861328125,0.701416015625,0.411376953125,-2.044677495956421,-0.4272460639476776,0.7019042372703552,60.0,189983.0,1.0
23568.3407347,288018.4375,284301.6875,-592740.0625,-567519.875,-418724.46875,-640540.125,-545798.9375,-750000.125,0.578125,0.700927734375,0.414306640625,-2.014159917831421,-0.4272460639476776,0.7019042372703552,60.0,189984.0,1.0
23568.3407408,285808.90625,294504.53125,-593544.0,-566878.625,-404240.15625,-638491.4375,-542696.875,-750000.125,0.577880859375,0.701416015625,0.41259765625,-1.9836424589157104,-0.3356933295726776,0.7324218153953552,60.0,189985.0,1.0
23568.3426356,284878.90625,294196.28125,-593254.5625,-566805.0625,-402493.59375,-638359.5,-542154.9375,-750000.125,0.577880859375,0.702392578125,0.410888671875,-2.014159917831421,-0.3662109076976776,0.7629393935203552,60.0,189986.0,1.0
23568.356376,286906.65625,284404.78125,-592460.125,-567412.9375,-416137.8125,-640316.625,-545084.75,-750000.125,0.57763671875,0.702880859375,0.41259765625,-2.044677495956421,-0.3051757514476776,0.7324218153953552,60.0,189987.0,1.0
23568.3594589,288201.625,283131.875,-592616.75,-567587.1875,-420101.0625,-640764.375,-546086.5625,-750000.125,0.580322265625,0.701416015625,0.41357421875,-2.075195074081421,-0.3356933295726776,0.7019042372703552,60.0,189988.0,1.0
23568.3594636,286316.125,293080.1875,-593470.25,-566987.5,-406500.90625,-638817.875,-543220.4375,-750000.125,0.5810546875,0.70068359375,0.416015625,-2.014159917831421,-0.3051757514476776,0.6408690810203552,60.0,189989.0,1.0
23568.3613678,284871.3125,295323.25,-593382.625,-566755.6875,-401249.9375,-638180.25,-541926.1875,-750000.125,0.580322265625,0.702392578125,0.41552734375,-2.075195074081421,-0.2136230319738388,0.7019042372703552,60.0,189990.0,1.0
23568.3651286,286577.90625,285954.46875,-592557.8125,-567317.3125,-413766.03125,-640014.1875,-544586.4375,-750000.125,0.579833984375,0.700439453125,0.4150390625,-2.014159917831421,-0.1525878757238388,0.7324218153953552,60.0,189991.0,1.0
23568.3738919,288309.1875,282359.84375,-592513.125,-567631.1875,-420906.4375,-640917.8125,-546258.25,-750000.125,0.580810546875,0.7021484375,0.41162109375,-1.9836424589157104,-0.2136230319738388,0.7019042372703552,60.0,189992.0,1.0
23568.3807167,286877.15625,291406.6875,-593357.125,-567112.875,-409076.90625,-639197.875,-543813.875,-750000.125,0.5810546875,0.701171875,0.41455078125,-2.105712652206421,-0.2136230319738388,0.7629393935203552,60.0,189993.0,1.0
23568.3807232,284917.4375,296035.8125,-593492.25,-566738.0,-400515.5625,-638086.125,-541831.625,-750000.125,0.582275390625,0.70068359375,0.410400390625,-2.105712652206421,-0.3356933295726776,0.7629393935203552,60.0,189994.0,1.0
23568.3832267,286064.25,287514.78125,-592692.375,-567215.5,-411210.53125,-639668.6875,-544041.3125,-750000.125,0.58056640625,0.70068359375,0.411376953125,-2.075195074081421,-0.3356933295726776,0.8544921278953552,60.0,189995.0,1.0
23568.3832325,288038.71875,281812.0625,-592445.4375,-567649.75,-421169.65625,-640974.6875,-546277.4375,-750000.125,0.580078125,0.70068359375,0.412109375,-1.9531248807907104,-0.3356933295726776,0.7629393935203552,60.0,189996.0,1.0
23568.3938942,287152.78125,289393.875,-593221.9375,-567248.5625,-411957.34375,-639604.75,-544423.0,-750000.125,0.580078125,0.701171875,0.416259765625,-1.9531248807907104,-0.3356933295726776,0.7324218153953552,60.0,189997.0,1.0
23568.3969665,284932.28125,296268.625,-593572.5,-566748.5625,-400691.875,-638083.875,-541876.4375,-750000.125,0.5791015625,0.701416015625,0.412109375,-1.9226073026657104,-0.2441406100988388,0.6713866591453552,60.0,189998.0,1.0
23568.3969734,285663.1875,289396.90625,-592843.9375,-567108.9375,-408711.78125,-639317.125,-543491.5625,-750000.125,0.578857421875,0.699951171875,0.4111328125,-1.9836424589157104,-0.2441406100988388,0.7019042372703552,60.0,189999.0,1.0
23568.4026426,287852.3125,281861.0625,-592404.9375,-567639.3125,-420815.59375,-640951.5625,-546166.3125,-750000.125,0.58056640625,0.69970703125,0.414306640625,-1.9531248807907104,-0.3051757514476776,0.7324218153953552,60.0,190000.0,1.0
23568.406401,287535.625,287509.53125,-593068.4375,-567375.75,-414741.71875,-640002.1875,-545005.5,-750000.125,0.580322265625,0.699462890625,0.415283203125,-2.014159917831421,-0.3662109076976776,0.7934569716453552,60.0,190001.0,1.0
23568.413216,285132.625,296161.625,-593621.5625,-566784.5625,-401408.90625,-638165.75,-542058.375,-750000.125,0.579345703125,0.701904296875,0.41455078125,-1.9836424589157104,-0.2441406100988388,0.7019042372703552,60.0,190002.0,1.0
23568.4132204,285322.1875,291324.96875,-593012.1875,-567004.875,-406285.0,-638966.375,-542970.9375,-750000.125,0.581298828125,0.699951171875,0.414794921875,-1.9531248807907104,-0.2441406100988388,0.7324218153953552,60.0,190003.0,1.0
23568.4226288,287635.3125,282466.25,-592409.4375,-567597.875,-419697.375,-640823.8125,-545912.0625,-750000.125,0.58251953125,0.70263671875,0.41357421875,-2.014159917831421,-0.3051757514476776,0.7629393935203552,60.0,190004.0,1.0
23568.4257089,287965.9375,285749.09375,-592914.375,-567488.1875,-417099.40625,-640354.875,-545510.6875,-750000.125,0.580078125,0.701171875,0.4140625,-2.044677495956421,-0.3051757514476776,0.7019042372703552,60.0,190005.0,1.0
23568.4257148,285577.6875,295565.0,-593623.8125,-566846.4375,-402647.46875,-638334.375,-542370.125,-750000.125,0.581298828125,0.69970703125,0.4140625,-2.014159917831421,-0.2441406100988388,0.7324218153953552,60.0,190006.0,1.0
23568.4276607,285150.4375,293054.8125,-593169.0,-566916.1875,-404064.46875,-638656.8125,-542525.5,-750000.125,0.578125,0.69970703125,0.4150390625,-1.8920897245407104,-0.3051757514476776,0.7324218153953552,60.0,190007.0,1.0
23568.452652,287372.8125,283452.78125,-592443.5625,-567535.125,-417973.34375,-640623.9375,-545547.4375,-750000.125,0.57861328125,0.699951171875,0.4130859375,-1.9531248807907104,-0.3051757514476776,0.8850097060203552,60.0,190008.0,1.0
23568.4551262,288244.53125,284338.15625,-592773.375,-567578.4375,-418890.65625,-640643.125,-545901.3125,-750000.125,0.581298828125,0.698974609375,0.4130859375,-2.014159917831421,-0.3662109076976776,0.7934569716453552,60.0,190009.0,1.0
23568.4576412,286034.40625,294557.03125,-593588.125,-566937.8125,-404389.5625,-638592.5625,-542803.5625,-750000.125,0.5810546875,0.69970703125,0.417236328125,-1.9531248807907104,-0.2136230319738388,0.7934569716453552,60.0,190010.0,1.0
23568.4607322,284954.4375,294436.5,-593313.9375,-566845.5625,-402241.65625,-638406.1875,-542181.5625,-750000.125,0.58056640625,0.70068359375,0.4150390625,-2.075195074081421,-0.3967284858226776,0.8239745497703552,60.0,190011.0,1.0
23568.4607388,286888.5,284594.03125,-592511.875,-567452.1875,-415897.9375,-640360.8125,-545098.875,-750000.125,0.58056640625,0.700439453125,0.41259765625,-2.105712652206421,-0.2746581733226776,0.7629393935203552,60.0,190012.0,1.0
23568.462636,288248.375,283083.875,-592649.125,-567643.4375,-420217.46875,-640859.5,-546175.5625,-750000.125,0.580078125,0.69970703125,0.4140625,-2.136230230331421,-0.3662109076976776,0.7019042372703552,60.0,190013.0,1.0
23568.4651349,286393.625,293001.0625,-593506.875,-567048.25,-406701.71875,-638922.9375,-543334.125,-750000.125,0.580322265625,0.701171875,0.412109375,-2.166747808456421,-0.2441406100988388,0.7324218153953552,60.0,190014.0,1.0
23568.4676289,284797.53125,295383.78125,-593445.125,-566802.625,-401062.90625,-638235.9375,-541962.0,-750000.125,0.581298828125,0.70068359375,0.412353515625,-2.014159917831421,-0.3051757514476776,0.7324218153953552,60.0,190015.0,1.0
23568.4701405,286353.40625,285865.25,-592618.0625,-567359.4375,-413619.6875,-640052.6875,-544590.1875,-750000.125,0.580078125,0.70166015625,0.4140625,-2.014159917831421,-0.3356933295726776,0.7629393935203552,60.0,190016.0,1.0
23568.4732205,288038.53125,282091.71875,-592556.75,-567687.375,-421127.53125,-640999.0,-546322.8125,-750000.125,0.579833984375,0.7001953125,0.41259765625,-2.075195074081421,-0.2136230319738388,0.6408690810203552,60.0,190017.0,1.0
23568.4732262,286638.59375,291056.03125,-593398.25,-567178.375,-409533.96875,-639309.875,-543932.3125,-750000.125,0.5791015625,0.701171875,0.413330078125,-2.075195074081421,-0.2136230319738388,0.7019042372703552,60.0,190018.0,1.0
23568.4813555,284711.09375,295970.5625,-593556.3125,-566786.8125,-400716.46875,-638150.75,-541882.1875,-750000.125,0.579345703125,0.70263671875,0.411865234375,-2.014159917831421,-0.3051757514476776,0.7934569716453552,60.0,190019.0,1.0
23568.4857174,285945.875,287658.84375,-592759.5,-567250.5625,-411134.34375,-639697.375,-544032.1875,-750000.125,0.579345703125,0.70166015625,0.413818359375,-2.014159917831421,-0.3051757514476776,0.7934569716453552,60.0,190020.0,1.0
23568.4857239,287970.9375,281740.625,-592491.0625,-567696.4375,-421332.375,-641040.5625,-546322.625,-750000.125,0.578857421875,0.701416015625,0.414306640625,-2.044677495956421,-0.3051757514476776,0.6408690810203552,60.0,190021.0,1.0
23568.4914037,287151.96875,289142.4375,-593257.0625,-567308.6875,-412407.9375,-639708.8125,-544535.125,-750000.125,0.57958984375,0.699462890625,0.413818359375,-2.075195074081421,-0.3662109076976776,0.7019042372703552,60.0,190022.0,1.0
23568.5032131,284916.1875,296232.5,-593627.875,-566797.1875,-400889.375,-638153.25,-541939.375,-750000.125,0.579345703125,0.699462890625,0.4111328125,-2.014159917831421,-0.3356933295726776,0.7629393935203552,60.0,190023.0,1.0
23568.5032193,285598.28125,289542.53125,-592908.75,-567146.1875,-408628.71875,-639347.5625,-543492.625,-750000.125,0.578857421875,0.700439453125,0.413818359375,-1.9836424589157104,-0.2746581733226776,0.7324218153953552,60.0,190024.0,1.0
23568.505708,287807.78125,281778.0,-592446.625,-567690.25,-421017.65625,-641022.875,-546221.5,-750000.125,0.581298828125,0.69921875,0.412841796875,-2.044677495956421,-0.3051757514476776,0.7629393935203552,60.0,190025.0,1.0
23568.5057134,287548.3125,287286.4375,-593100.375,-567437.25,-415183.0625,-640106.5,-545114.5625,-750000.125,0.581298828125,0.697998046875,0.41259765625,-2.044677495956421,-0.3662109076976776,0.7629393935203552,60.0,190026.0,1.0
23568.5113746,285141.84375,296101.96875,-593668.625,-566837.0625,-401663.09375,-638244.8125,-542131.6875,-750000.125,0.58056640625,0.6982421875,0.413818359375,-2.075195074081421,-0.4272460639476776,0.7324218153953552,60.0,190027.0,1.0
23568.5139547,285254.84375,291460.40625,-593073.375,-567046.875,-406231.0,-639006.5625,-542979.3125,-750000.125,0.580078125,0.698486328125,0.4130859375,-1.9531248807907104,-0.3051757514476776,0.7324218153953552,60.0,190028.0,1.0
23568.527629,287536.96875,282359.84375,-592449.1875,-567654.25,-419952.28125,-640904.5,-545970.0625,-750000.125,0.57958984375,0.698974609375,0.411865234375,-1.9531248807907104,-0.3051757514476776,0.7629393935203552,60.0,190029.0,1.0
23568.5307227,287863.125,285571.53125,-592948.875,-567552.8125,-417591.03125,-640462.875,-545617.0,-750000.125,0.580322265625,0.69921875,0.411865234375,-2.014159917831421,-0.3356933295726776,0.7629393935203552,60.0,190030.0,1.0
23568.5307291,285472.28125,295492.125,-593672.9375,-566906.5,-403032.1875,-638427.5625,-542459.8125,-750000.125,0.579345703125,0.70166015625,0.414306640625,-1.9836424589157104,-0.2441406100988388,0.7324218153953552,60.0,190031.0,1.0
23568.5326256,285002.0,293194.90625,-593233.8125,-566959.1875,-404131.8125,-638701.1875,-542538.9375,-750000.125,0.58056640625,0.700439453125,0.411865234375,-2.044677495956421,-0.3356933295726776,0.7629393935203552,60.0,190032.0,1.0
23568.5351565,287250.6875,283395.09375,-592486.125,-567588.875,-418281.90625,-640696.3125,-545597.25,-750000.125,0.580322265625,0.699951171875,0.411865234375,-2.166747808456421,-0.3051757514476776,0.8239745497703552,60.0,190033.0,1.0
23568.5469609,288152.53125,284145.5,-592809.3125,-567641.4375,-419421.75,-640745.625,-546003.625,-750000.125,0.580078125,0.69921875,0.413818359375,-2.166747808456421,-0.3051757514476776,0.7629393935203552,60.0,190034.0,1.0
23568.5469672,285950.25,294410.84375,-593634.0,-566997.875,-404906.53125,-638690.0625,-542906.75,-750000.125,0.57861328125,0.69970703125,0.41357421875,-2.014159917831421,-0.3051757514476776,0.7019042372703552,60.0,190035.0,1.0
23568.5494687,284899.28125,294622.90625,-593384.5,-566892.9375,-402417.34375,-638458.6875,-542210.1875,-750000.125,0.57861328125,0.69970703125,0.4150390625,-2.105712652206421,-0.3051757514476776,0.6103515028953552,60.0,190036.0,1.0
23568.5494747,286898.15625,284812.90625,-592571.5,-567501.3125,-416004.875,-640412.4375,-545123.0625,-750000.125,0.578857421875,0.69970703125,0.412841796875,-2.075195074081421,-0.3051757514476776,0.7629393935203552,60.0,190037.0,1.0
23568.5513834,288310.96875,283104.78125,-592692.1875,-567705.1875,-420612.8125,-640951.4375,-546263.6875,-750000.125,0.578857421875,0.7001953125,0.415283203125,-2.075195074081421,-0.3662109076976776,0.7324218153953552,60.0,190038.0,1.0
23568.5601403,286489.75,293007.0625,-593554.25,-567113.125,-407170.21875,-639023.0,-543443.5625,-750000.125,0.578369140625,0.702392578125,0.41748046875,-2.136230230331421,-0.3051757514476776,0.8239745497703552,60.0,190039.0,1.0
23568.5626389,284920.28125,295750.96875,-593513.5625,-566853.25,-401206.84375,-638289.25,-542001.1875,-750000.125,0.5791015625,0.699951171875,0.41455078125,-2.075195074081421,-0.3051757514476776,0.7324218153953552,60.0,190040.0,1.0
23568.566388,286551.875,286483.65625,-592683.625,-567404.9375,-413468.5,-640089.1875,-544597.5,-750000.125,0.580322265625,0.700927734375,0.413330078125,-2.044677495956421,-0.2746581733226776,0.6103515028953552,60.0,190041.0,1.0
23568.5751264,288369.15625,282456.59375,-592598.3125,-567744.625,-421207.28125,-641078.4375,-546393.6875,-750000.125,0.580322265625,0.701171875,0.4130859375,-2.136230230331421,-0.2746581733226776,0.6408690810203552,60.0,190042.0,1.0
23568.5782211,287026.28125,291313.78125,-593438.5625,-567241.25,-409743.34375,-639404.125,-544036.8125,-750000.125,0.580810546875,0.70263671875,0.411865234375,-2.105712652206421,-0.2441406100988388,0.7019042372703552,60.0,190043.0,1.0
23568.5782265,285038.59375,296486.15625,-593617.8125,-566837.5625,-400596.84375,-638198.125,-541925.375,-750000.125,0.581787109375,0.700927734375,0.4169921875,-2.044677495956421,-0.3356933295726776,0.7629393935203552,60.0,190044.0,1.0
23568.5888731,286204.8125,288382.5,-592825.25,-567295.625,-410729.6875,-639725.4375,-544032.4375,-750000.125,0.580810546875,0.699951171875,0.4169921875,-2.075195074081421,-0.3051757514476776,0.7629393935203552,60.0,190045.0,1.0
23568.5919653,288307.3125,282249.0,-592536.125,-567753.625,-421136.125,-641111.5625,-546380.3125,-750000.125,0.5810546875,0.699951171875,0.4150390625,-2.014159917831421,-0.3051757514476776,0.6713866591453552,60.0,190046.0,1.0
23568.5919715,287517.65625,289458.875,-593298.375,-567372.875,-412441.65625,-639808.625,-544645.9375,-750000.125,0.57861328125,0.701171875,0.41455078125,-2.044677495956421,-0.3051757514476776,0.7629393935203552,60.0,190047.0,1.0
23568.5938651,285188.0625,296716.5625,-593695.1875,-566849.375,-400609.53125,-638211.0625,-541996.375,-750000.125,0.579833984375,0.70263671875,0.414794921875,-1.9836424589157104,-0.4272460639476776,0.7324218153953552,60.0,190048.0,1.0
23568.6032312,285711.1875,290144.6875,-592982.125,-567184.0625,-408069.28125,-639365.5,-543483.4375,-750000.125,0.58056640625,0.700927734375,0.412841796875,-2.044677495956421,-0.3356933295726776,0.7019042372703552,60.0,190049.0,1.0
23568.603238,287982.125,282235.125,-592503.1875,-567736.125,-420577.875,-641069.25,-546247.0625,-750000.125,0.579833984375,0.69921875,0.412353515625,-2.044677495956421,-0.2441406100988388,0.5798339247703552,60.0,190050.0,1.0
23568.6051271,287808.0625,287428.53125,-593144.0,-567500.25,-415069.3125,-640201.4375,-545217.625,-750000.125,0.580322265625,0.70166015625,0.41162109375,-2.044677495956421,-0.2441406100988388,0.7019042372703552,60.0,190051.0,1.0
23568.613876,285371.25,296355.28125,-593729.0625,-566893.125,-401380.5,-638313.625,-542207.75,-750000.125,0.5791015625,0.70166015625,0.41162109375,-2.136230230331421,-0.2441406100988388,0.7324218153953552,60.0,190052.0,1.0
23568.6182118,285311.8125,291838.96875,-593145.75,-567085.4375,-405618.1875,-639024.8125,-542976.75,-750000.125,0.5791015625,0.7021484375,0.4140625,-2.014159917831421,-0.3051757514476776,0.6713866591453552,60.0,190053.0,1.0
23568.618217,287594.0,282636.75,-592508.0,-567696.3125,-419413.34375,-640937.9375,-545979.0,-750000.125,0.580078125,0.701416015625,0.412353515625,-2.014159917831421,-0.3051757514476776,0.7629393935203552,60.0,190054.0,1.0
23568.6263567,288015.03125,285542.46875,-592988.125,-567609.5,-417391.65625,-640546.5,-545703.125,-750000.125,0.58154296875,0.7001953125,0.41162109375,-1.9836424589157104,-0.2746581733226776,0.6408690810203552,60.0,190055.0,1.0
23568.6293829,285631.34375,295508.03125,-593723.5,-566960.9375,-402791.6875,-638502.125,-542543.9375,-750000.125,0.58056640625,0.699951171875,0.4130859375,-1.9836424589157104,-0.2136230319738388,0.6713866591453552,60.0,190056.0,1.0
23568.6293906,284994.6875,293315.78125,-593303.9375,-567000.5,-403549.78125,-638726.6875,-542547.5625,-750000.125,0.579833984375,0.69921875,0.4130859375,-2.014159917831421,-0.2441406100988388,0.7019042372703552,60.0,190057.0,1.0
23568.6351308,287125.6875,283388.5625,-592550.5,-567628.6875,-417773.53125,-640723.8125,-545594.375,-750000.125,0.5810546875,0.70068359375,0.4140625,-2.044677495956421,-0.2136230319738388,0.6713866591453552,60.0,190058.0,1.0
23568.6376306,288040.15625,283936.5625,-592849.75,-567696.4375,-419367.90625,-640827.375,-546082.9375,-750000.125,0.577880859375,0.700439453125,0.41259765625,-1.9836424589157104,-0.2441406100988388,0.7324218153953552,60.0,190059.0,1.0
23568.6469684,285854.3125,294227.375,-593686.5625,-567056.0,-404916.34375,-638774.625,-543003.3125,-750000.125,0.580078125,0.699462890625,0.411376953125,-2.044677495956421,-0.1831054538488388,0.6713866591453552,60.0,190060.0,1.0
23568.647251,284773.5625,294670.125,-593457.6875,-566930.375,-402074.375,-638480.125,-542215.0625,-750000.125,0.5810546875,0.699462890625,0.41015625,-2.105712652206421,-0.2136230319738388,0.5798339247703552,60.0,190061.0,1.0
23568.6488675,286745.96875,284753.46875,-592636.875,-567535.75,-415688.5625,-640433.75,-545111.0625,-750000.125,0.5791015625,0.700439453125,0.412353515625,-2.105712652206421,-0.2441406100988388,0.7324218153953552,60.0,190062.0,1.0
23568.6576205,288159.0625,282822.71875,-592733.4375,-567755.0625,-420717.59375,-641025.6875,-546328.25,-750000.125,0.580078125,0.701171875,0.41259765625,-2.075195074081421,-0.2746581733226776,0.7019042372703552,60.0,190063.0,1.0
23568.6619733,286383.0,292668.9375,-593596.5625,-567171.9375,-407446.84375,-639120.8125,-543549.6875,-750000.125,0.577880859375,0.7021484375,0.416748046875,-2.044677495956421,-0.2441406100988388,0.8239745497703552,60.0,190064.0,1.0
23568.6619783,284775.46875,295641.25,-593574.5,-566895.0,-401171.4375,-638338.9375,-542035.75,-750000.125,0.576904296875,0.69970703125,0.414794921875,-2.014159917831421,-0.3051757514476776,0.7019042372703552,60.0,190065.0,1.0
23568.6751369,286382.09375,286436.625,-592743.0,-567437.125,-413293.59375,-640114.375,-544589.75,-750000.125,0.578125,0.701416015625,0.414794921875,-2.014159917831421,-0.3051757514476776,0.7629393935203552,60.0,190066.0,1.0
23568.6825654,288235.59375,282176.75,-592638.125,-567792.1875,-421339.53125,-641149.1875,-546450.0,-750000.125,0.578369140625,0.700927734375,0.414306640625,-2.075195074081421,-0.2746581733226776,0.8239745497703552,60.0,190067.0,1.0
23568.6825714,286940.0,290909.65625,-593476.75,-567300.8125,-410081.5,-639507.5,-544143.6875,-750000.125,0.57861328125,0.700439453125,0.416259765625,-2.044677495956421,-0.2746581733226776,0.7019042372703552,60.0,190068.0,1.0
23568.6825738,284922.09375,296293.21875,-593677.3125,-566886.5625,-400664.96875,-638267.6875,-541977.6875,-750000.125,0.580078125,0.69970703125,0.4169921875,-2.014159917831421,-0.2746581733226776,0.6713866591453552,60.0,190069.0,1.0
23568.6869457,286036.53125,288355.3125,-592890.5,-567330.125,-410533.53125,-639753.1875,-544021.875,-750000.125,0.580810546875,0.698974609375,0.417724609375,-2.014159917831421,-0.3662109076976776,0.6408690810203552,60.0,190070.0,1.0
23568.6869533,288157.4375,282041.75,-592582.0625,-567796.9375,-421147.5625,-641169.375,-546411.125,-750000.125,0.580322265625,0.69970703125,0.41259765625,-2.044677495956421,-0.4577636420726776,0.6713866591453552,60.0,190071.0,1.0
23568.6888624,287445.78125,289055.8125,-593331.4375,-567432.125,-412758.15625,-639909.3125,-544745.3125,-750000.125,0.577880859375,0.698974609375,0.4150390625,-2.105712652206421,-0.3662109076976776,0.6103515028953552,60.0,190072.0,1.0
23568.6976467,285138.625,296544.90625,-593748.125,-566899.0,-400752.5,-638275.125,-542053.9375,-750000.125,0.578125,0.700927734375,0.418701171875,-2.044677495956421,-0.3051757514476776,0.7324218153953552,60.0,190073.0,1.0
23568.7019721,285690.53125,290326.375,-593054.125,-567218.375,-407783.625,-639382.125,-543459.8125,-750000.125,0.581298828125,0.70068359375,0.41552734375,-2.014159917831421,-0.2746581733226776,0.7324218153953552,60.0,190074.0,1.0
23568.7019774,287975.5,282292.25,-592556.9375,-567775.8125,-420383.40625,-641109.5625,-546250.125,-750000.125,0.58154296875,0.7021484375,0.414794921875,-1.9531248807907104,-0.2746581733226776,0.6103515028953552,60.0,190075.0,1.0
23568.7151235,287888.6875,287216.625,-593175.4375,-567556.625,-415306.96875,-640298.8125,-545311.3125,-750000.125,0.578369140625,0.70361328125,0.413330078125,-1.9836424589157104,-0.2746581733226776,0.6408690810203552,60.0,190076.0,1.0
23568.7182051,285459.875,296275.875,-593778.5,-566944.875,-401503.15625,-638392.3125,-542282.3125,-750000.125,0.5791015625,0.700927734375,0.415283203125,-1.9836424589157104,-0.2136230319738388,0.7324218153953552,60.0,190077.0,1.0
23568.7182126,285327.8125,292001.59375,-593211.1875,-567122.875,-405383.875,-639056.6875,-542978.0625,-750000.125,0.580078125,0.700927734375,0.414794921875,-2.014159917831421,-0.2136230319738388,0.6408690810203552,60.0,190078.0,1.0
23568.7201342,287605.71875,282728.46875,-592559.875,-567735.875,-419234.625,-640983.125,-545992.5,-750000.125,0.5810546875,0.7001953125,0.41259765625,-1.9531248807907104,-0.3356933295726776,0.7934569716453552,60.0,190079.0,1.0
23568.7238847,288092.0,285399.0625,-593023.75,-567665.875,-417574.9375,-640642.3125,-545795.375,-750000.125,0.580322265625,0.7001953125,0.41455078125,-1.9531248807907104,-0.3051757514476776,0.7629393935203552,60.0,190080.0,1.0
23568.7357115,285718.53125,295424.71875,-593771.625,-567016.9375,-402940.0,-638591.5,-542633.9375,-750000.125,0.5791015625,0.7021484375,0.416015625,-2.014159917831421,-0.2746581733226776,0.8239745497703552,60.0,190081.0,1.0
23568.7357172,285010.3125,293477.34375,-593366.3125,-567037.5,-403334.84375,-638764.1875,-542558.125,-750000.125,0.58056640625,0.70068359375,0.415771484375,-2.014159917831421,-0.3356933295726776,0.7629393935203552,60.0,190082.0,1.0
23568.738199,287111.75,283510.15625,-592603.25,-567665.6875,-417554.375,-640764.0,-545601.375,-750000.125,0.57861328125,0.701904296875,0.413330078125,-1.9226073026657104,-0.3051757514476776,0.5798339247703552,60.0,190083.0,1.0
23568.7382041,288083.96875,283827.90625,-592886.3125,-567751.125,-419472.875,-640916.375,-546161.3125,-750000.125,0.5810546875,0.703125,0.412841796875,-2.075195074081421,-0.2746581733226776,0.6713866591453552,60.0,190084.0,1.0
23568.7401231,285953.21875,294114.28125,-593723.1875,-567113.9375,-405083.0,-638871.4375,-543098.625,-750000.125,0.5810546875,0.703125,0.41357421875,-2.014159917831421,-0.2136230319738388,0.7019042372703552,60.0,190085.0,1.0
23568.7513728,284807.1875,294822.90625,-593509.75,-566975.25,-401912.46875,-638535.0,-542248.625,-750000.125,0.58203125,0.70068359375,0.412841796875,-1.9836424589157104,-0.1525878757238388,0.7019042372703552,60.0,190086.0,1.0
23568.7544591,286744.09375,285006.75,-592688.1875,-567578.0625,-415367.9375,-640479.5,-545123.25,-750000.125,0.581787109375,0.7021484375,0.4130859375,-2.105712652206421,-0.1525878757238388,0.8239745497703552,60.0,190087.0,1.0
23568.7544645,288230.3125,282808.78125,-592770.875,-567811.125,-420638.3125,-641113.9375,-546403.6875,-750000.125,0.579345703125,0.701904296875,0.412841796875,-2.075195074081421,-0.2441406100988388,0.7019042372703552,60.0,190088.0,1.0
23568.762626,286479.71875,292588.71875,-593639.0,-567231.9375,-407481.53125,-639219.875,-543655.4375,-750000.125,0.57958984375,0.701416015625,0.414794921875,-2.044677495956421,-0.3662109076976776,0.7934569716453552,60.0,190089.0,1.0
23568.7657272,284753.71875,295781.8125,-593644.375,-566935.8125,-400773.5,-638375.0,-542054.0625,-750000.125,0.580078125,0.700439453125,0.4140625,-2.044677495956421,-0.3051757514476776,0.7934569716453552,60.0,190090.0,1.0
23568.7657336,286204.4375,286533.1875,-592816.375,-567464.9375,-412776.84375,-640120.4375,-544552.0625,-750000.125,0.579345703125,0.69873046875,0.41455078125,-1.9836424589157104,-0.1220703050494194,0.7324218153953552,60.0,190091.0,1.0
23568.7676281,288035.59375,282013.9375,-592684.4375,-567834.5625,-421247.78125,-641205.75,-546484.5625,-750000.125,0.579345703125,0.70068359375,0.415283203125,-1.9531248807907104,-0.1831054538488388,0.6713866591453552,60.0,190092.0,1.0
23568.7713752,286813.5,290610.34375,-593512.1875,-567357.125,-410325.9375,-639604.25,-544250.0,-750000.125,0.578857421875,0.700439453125,0.4130859375,-1.9531248807907104,-0.3662109076976776,0.7019042372703552,60.0,190093.0,1.0
23568.785122,284769.1875,296209.25,-593734.0625,-566929.25,-400635.46875,-638319.6875,-542024.125,-750000.125,0.57958984375,0.701171875,0.4140625,-1.9836424589157104,-0.2746581733226776,0.5798339247703552,60.0,190094.0,1.0
23568.7882042,285836.1875,288324.03125,-592954.4375,-567363.5625,-410326.8125,-639776.625,-544015.9375,-750000.125,0.580078125,0.701171875,0.41357421875,-2.014159917831421,-0.3051757514476776,0.6408690810203552,60.0,190095.0,1.0
23568.7882089,287944.9375,281797.5,-592624.0,-567842.25,-421279.875,-641232.875,-546459.5,-750000.125,0.580322265625,0.699462890625,0.413330078125,-2.075195074081421,-0.3356933295726776,0.7629393935203552,60.0,190096.0,1.0
23568.790122,287286.90625,288704.875,-593364.125,-567490.625,-413182.46875,-640011.75,-544856.9375,-750000.125,0.579345703125,0.698974609375,0.416259765625,-2.075195074081421,-0.3051757514476776,0.7019042372703552,60.0,190097.0,1.0
23568.7938647,284975.625,296372.875,-593798.875,-566949.25,-400960.0,-638351.4375,-542121.9375,-750000.125,0.57861328125,0.699951171875,0.415771484375,-1.9531248807907104,-0.2136230319738388,0.7629393935203552,60.0,190098.0,1.0
23568.8082099,285494.09375,290295.625,-593112.875,-567254.5625,-407755.84375,-639417.375,-543463.8125,-750000.125,0.577392578125,0.69873046875,0.4130859375,-2.075195074081421,-0.3051757514476776,0.7324218153953552,60.0,190099.0,1.0
23568.8082162,287784.0,282106.84375,-592601.1875,-567818.3125,-420522.96875,-641165.75,-546282.125,-750000.125,0.57861328125,0.700927734375,0.412841796875,-2.044677495956421,-0.4272460639476776,0.7934569716453552,60.0,190100.0,1.0
23568.8101327,287740.625,286822.59375,-593208.625,-567614.375,-415751.125,-640398.875,-545412.625,-750000.125,0.57958984375,0.7021484375,0.412841796875,-2.044677495956421,-0.4272460639476776,0.7934569716453552,60.0,190101.0,1.0
23568.8126273,285326.28125,296038.5,-593829.625,-566997.8125,-401831.28125,-638472.1875,-542359.125,-750000.125,0.577880859375,0.699462890625,0.41162109375,-2.075195074081421,-0.3356933295726776,0.8239745497703552,60.0,190102.0,1.0
23568.817627,285259.78125,292106.375,-593273.375,-567158.5625,-405360.96875,-639088.875,-542978.5,-750000.125,0.57763671875,0.699951171875,0.40966796875,-2.105712652206421,-0.4577636420726776,0.8239745497703552,60.0,190103.0,1.0
23568.8207008,287573.8125,282769.4375,-592607.6875,-567776.25,-419251.4375,-641030.375,-546010.5,-750000.125,0.578125,0.70068359375,0.410400390625,-2.075195074081421,-0.3662109076976776,0.7934569716453552,60.0,190104.0,1.0
23568.8207072,288083.5,285222.65625,-593060.9375,-567721.0,-417895.75,-640733.5,-545883.0625,-750000.125,0.57958984375,0.699951171875,0.415283203125,-2.105712652206421,-0.2441406100988388,0.7934569716453552,60.0,190105.0,1.0
23568.8301793,285727.09375,295305.71875,-593822.25,-567072.8125,-403260.96875,-638678.0,-542725.25,-750000.125,0.5791015625,0.700927734375,0.415283203125,-2.014159917831421,-0.2746581733226776,0.6103515028953552,60.0,190106.0,1.0
23568.8363913,285072.90625,293779.28125,-593437.125,-567075.5625,-403252.21875,-638794.9375,-542566.375,-750000.125,0.580078125,0.700927734375,0.416259765625,-1.9836424589157104,-0.2746581733226776,0.6713866591453552,60.0,190107.0,1.0
23568.8394529,287254.25,283923.6875,-592664.9375,-567701.875,-417289.125,-640794.75,-545600.125,-750000.125,0.575439453125,0.701171875,0.417236328125,-2.014159917831421,-0.3051757514476776,0.6103515028953552,60.0,190108.0,1.0
23568.8394583,288337.0625,283907.84375,-592925.3125,-567803.4375,-419527.25,-640999.625,-546239.1875,-750000.125,0.577392578125,0.700927734375,0.417236328125,-1.9531248807907104,-0.3356933295726776,0.6713866591453552,60.0,190109.0,1.0
23568.8413681,286242.1875,294151.125,-593766.1875,-567170.6875,-405214.96875,-638964.8125,-543200.5,-750000.125,0.58056640625,0.703125,0.416259765625,-2.014159917831421,-0.2441406100988388,0.7629393935203552,60.0,190110.0,1.0
23568.8451524,284934.96875,295029.71875,-593574.1875,-567016.3125,-401645.125,-638577.1875,-542274.25,-750000.125,0.58251953125,0.700439453125,0.415283203125,-1.9531248807907104,-0.1831054538488388,0.7629393935203552,60.0,190111.0,1.0
23568.8513676,286754.03125,285200.9375,-592748.0,-567613.125,-415049.28125,-640507.0,-545119.625,-750000.125,0.581298828125,0.699462890625,0.41552734375,-2.105712652206421,-0.2136230319738388,0.7324218153953552,60.0,190112.0,1.0
23568.8607002,288278.34375,282762.46875,-592811.1875,-567861.8125,-420648.5,-641188.625,-546467.625,-750000.125,0.580810546875,0.700927734375,0.411376953125,-2.166747808456421,-0.2441406100988388,0.7629393935203552,60.0,190113.0,1.0
23568.8607061,286580.5,292439.0625,-593675.5,-567291.125,-407673.75,-639319.3125,-543760.375,-750000.125,0.580322265625,0.702880859375,0.411376953125,-2.136230230331421,-0.2441406100988388,0.7324218153953552,60.0,190114.0,1.0
23568.8632085,284822.75,295846.1875,-593697.3125,-566984.6875,-400701.0,-638438.0625,-542107.375,-750000.125,0.5810546875,0.701171875,0.4130859375,-2.105712652206421,-0.2746581733226776,0.7629393935203552,60.0,190115.0,1.0
23568.8632166,286229.125,286688.75,-592871.0,-567511.1875,-412547.40625,-640169.8125,-544575.8125,-750000.125,0.5791015625,0.700439453125,0.41357421875,-2.044677495956421,-0.3662109076976776,0.6408690810203552,60.0,190116.0,1.0
23568.8688989,288084.75,282004.65625,-592724.125,-567890.0,-421242.0625,-641287.875,-546554.375,-750000.125,0.580078125,0.70263671875,0.4130859375,-2.014159917831421,-0.4882812201976776,0.6408690810203552,60.0,190117.0,1.0
23568.8726356,286869.8125,290494.46875,-593553.3125,-567420.1875,-410506.09375,-639709.8125,-544364.3125,-750000.125,0.577880859375,0.702392578125,0.41357421875,-2.014159917831421,-0.4272460639476776,0.6408690810203552,60.0,190118.0,1.0
23568.886369,284722.4375,296297.25,-593803.5625,-566973.375,-400425.4375,-638369.4375,-542061.6875,-750000.125,0.578857421875,0.7021484375,0.41162109375,-2.014159917831421,-0.3662109076976776,0.7019042372703552,60.0,190119.0,1.0
23568.8894471,285643.25,288478.25,-593033.3125,-567390.375,-409869.40625,-639778.125,-543974.5,-750000.125,0.578857421875,0.702392578125,0.412841796875,-2.014159917831421,-0.2746581733226776,0.7324218153953552,60.0,190120.0,1.0
23568.8894527,287762.375,281717.8125,-592680.375,-567880.6875,-421100.8125,-641273.25,-546469.3125,-750000.125,0.5791015625,0.700439453125,0.415283203125,-1.9836424589157104,-0.3356933295726776,0.6713866591453552,60.0,190121.0,1.0
23568.89138,287187.125,288348.0625,-593400.75,-567547.8125,-413438.625,-640110.4375,-544959.9375,-750000.125,0.57958984375,0.7001953125,0.411865234375,-1.9836424589157104,-0.3051757514476776,0.7019042372703552,60.0,190122.0,1.0
23568.893881,284870.84375,296183.78125,-593854.4375,-566997.375,-401034.65625,-638419.6875,-542189.0625,-750000.125,0.579833984375,0.701904296875,0.4111328125,-1.9836424589157104,-0.3356933295726776,0.7019042372703552,60.0,190123.0,1.0
23568.9026246,285345.15625,290256.28125,-593180.875,-567291.5625,-407565.40625,-639446.0,-543465.8125,-750000.125,0.580322265625,0.7021484375,0.4140625,-2.044677495956421,-0.2441406100988388,0.7934569716453552,60.0,190124.0,1.0
23568.9057012,287596.4375,281930.25,-592655.4375,-567861.9375,-420509.75,-641214.0,-546307.125,-750000.125,0.579345703125,0.702880859375,0.4150390625,-2.044677495956421,-0.2136230319738388,0.7629393935203552,60.0,190125.0,1.0
23568.9057071,287581.40625,286482.0625,-593246.4375,-567671.125,-416100.53125,-640492.5625,-545508.75,-750000.125,0.5810546875,0.701904296875,0.415283203125,-2.014159917831421,-0.3051757514476776,0.7019042372703552,60.0,190126.0,1.0
23568.9139619,285168.3125,295806.84375,-593880.6875,-567048.25,-402074.5625,-638548.125,-542435.125,-750000.125,0.582275390625,0.700927734375,0.412109375,-1.9531248807907104,-0.2441406100988388,0.7019042372703552,60.0,190127.0,1.0
23568.9182043,285056.625,292059.34375,-593343.375,-567196.0,-405297.84375,-639119.0,-542979.875,-750000.125,0.579833984375,0.700439453125,0.416259765625,-2.014159917831421,-0.2441406100988388,0.7629393935203552,60.0,190128.0,1.0
23568.9182103,287324.0,282610.90625,-592668.25,-567814.6875,-419279.0625,-641065.25,-546013.6875,-750000.125,0.579345703125,0.699951171875,0.416015625,-2.044677495956421,-0.2746581733226776,0.8239745497703552,60.0,190129.0,1.0
23568.9325625,287884.59375,284838.21875,-593096.125,-567777.4375,-418382.375,-640827.3125,-545975.0625,-750000.125,0.579833984375,0.700439453125,0.4150390625,-2.014159917831421,-0.3356933295726776,0.7629393935203552,60.0,190130.0,1.0
23568.9325691,285559.90625,294999.0625,-593866.375,-567127.375,-403713.125,-638766.8125,-542814.625,-750000.125,0.580322265625,0.7001953125,0.413818359375,-1.9226073026657104,-0.3662109076976776,0.6713866591453552,60.0,190131.0,1.0
23568.9325714,284851.0,293654.8125,-593499.0,-567117.1875,-403408.875,-638841.9375,-542583.875,-750000.125,0.580810546875,0.70166015625,0.412109375,-2.014159917831421,-0.2746581733226776,0.5798339247703552,60.0,190132.0,1.0
23568.934978,286985.9375,283686.46875,-592716.625,-567742.9375,-417535.53125,-640839.375,-545612.5625,-750000.125,0.57861328125,0.69873046875,0.410888671875,-2.014159917831421,-0.2441406100988388,0.6713866591453552,60.0,190133.0,1.0
23568.9426359,288054.90625,283529.125,-592960.875,-567854.75,-420109.71875,-641082.3125,-546312.3125,-750000.125,0.577880859375,0.7001953125,0.412353515625,-2.014159917831421,-0.2441406100988388,0.6713866591453552,60.0,190134.0,1.0
23568.9451288,285982.4375,293766.5625,-593809.1875,-567227.125,-405877.65625,-639060.25,-543297.1875,-750000.125,0.58056640625,0.70068359375,0.413818359375,-2.014159917831421,-0.3051757514476776,0.6713866591453552,60.0,190135.0,1.0
23568.947636,284722.15625,294978.5,-593639.9375,-567059.25,-401999.375,-638629.8125,-542301.25,-750000.125,0.580322265625,0.699951171875,0.414794921875,-1.9836424589157104,-0.2136230319738388,0.7629393935203552,60.0,190136.0,1.0
23568.9501153,286594.625,285279.625,-592811.75,-567650.625,-415210.6875,-640540.125,-545117.875,-750000.125,0.581298828125,0.700439453125,0.410888671875,-1.9836424589157104,-0.3051757514476776,0.7629393935203552,60.0,190137.0,1.0
23568.9588694,288183.8125,282634.5,-592850.625,-567909.3125,-421111.71875,-641262.0,-546528.6875,-750000.125,0.5810546875,0.701171875,0.41015625,-1.9531248807907104,-0.3967284858226776,0.7324218153953552,60.0,190138.0,1.0
23568.9632152,286527.84375,292220.28125,-593712.875,-567346.5,-408299.4375,-639415.125,-543861.875,-750000.125,0.579833984375,0.700927734375,0.4130859375,-2.075195074081421,-0.3662109076976776,0.8239745497703552,60.0,190139.0,1.0
23568.9632229,284782.53125,295938.71875,-593758.8125,-567029.4375,-401037.625,-638495.9375,-542146.625,-750000.125,0.579345703125,0.70068359375,0.412109375,-2.044677495956421,-0.2136230319738388,0.7934569716453552,60.0,190140.0,1.0
23568.9651248,286247.90625,287049.96875,-592934.75,-567547.8125,-412579.78125,-640199.6875,-544572.0,-750000.125,0.5810546875,0.69970703125,0.41162109375,-2.014159917831421,-0.2746581733226776,0.7934569716453552,60.0,190141.0,1.0
23568.9738673,288198.5,282143.3125,-592767.5,-567938.8125,-421464.6875,-641356.0,-546605.3125,-750000.125,0.580078125,0.699951171875,0.410888671875,-2.044677495956421,-0.3051757514476776,0.8544921278953552,60.0,190142.0,1.0
23568.9781851,287064.53125,290449.59375,-593587.875,-567480.5,-410945.78125,-639811.0,-544468.125,-750000.125,0.58056640625,0.699462890625,0.4140625,-2.075195074081421,-0.3051757514476776,0.7324218153953552,60.0,190143.0,1.0
23568.9781924,284941.84375,296495.8125,-593853.0625,-567027.75,-400687.40625,-638445.6875,-542129.6875,-750000.125,0.57958984375,0.701171875,0.413330078125,-1.9836424589157104,-0.3051757514476776,0.6713866591453552,60.0,190144.0,1.0
23568.9894543,285904.9375,288984.65625,-593085.25,-567439.0,-409825.78125,-639833.1875,-544007.0625,-750000.125,0.580322265625,0.7001953125,0.4140625,-1.9531248807907104,-0.2746581733226776,0.5798339247703552,60.0,190145.0,1.0
23568.9894606,288110.25,282097.0,-592717.25,-567938.4375,-421161.0625,-641357.0625,-546542.375,-750000.125,0.580810546875,0.698486328125,0.415771484375,-1.9531248807907104,-0.2136230319738388,0.6408690810203552,60.0,190146.0,1.0
23568.991944,287559.21875,288597.5,-593440.125,-567611.25,-413603.5,-640209.8125,-545064.0625,-750000.125,0.58056640625,0.699951171875,0.412353515625,-2.014159917831421,-0.2136230319738388,0.5798339247703552,60.0,190147.0,1.0
23568.9919493,285189.84375,296633.6875,-593916.875,-567049.5,-400945.0,-638478.5,-542244.3125,-750000.125,0.5791015625,0.699462890625,0.41357421875,-1.9531248807907104,-0.2441406100988388,0.6713866591453552,60.0,190148.0,1.0
23569.0001191,285579.3125,291011.21875,-593255.625,-567325.8125,-407046.21875,-639457.4375,-543440.5625,-750000.125,0.579345703125,0.69970703125,0.4150390625,-2.014159917831421,-0.2746581733226776,0.7629393935203552,60.0,190149.0,1.0
23569.0032176,287886.46875,282573.8125,-592710.1875,-567902.0,-420066.71875,-641253.8125,-546313.875,-750000.125,0.57861328125,0.69921875,0.4150390625,-1.9836424589157104,-0.3051757514476776,0.7629393935203552,60.0,190150.0,1.0
23569.0032256,287965.5,286796.6875,-593283.1875,-567729.3125,-416040.0,-640587.625,-545603.3125,-750000.125,0.577392578125,0.69970703125,0.413330078125,-2.044677495956421,-0.3662109076976776,0.6408690810203552,60.0,190151.0,1.0
23569.0139447,285540.15625,296217.03125,-593933.1875,-567102.3125,-401890.71875,-638623.5,-542513.5,-750000.125,0.577880859375,0.701416015625,0.411376953125,-1.9836424589157104,-0.3051757514476776,0.7019042372703552,60.0,190152.0,1.0
23569.0169469,285243.15625,292631.1875,-593411.1875,-567234.375,-404744.5,-639145.5,-542984.3125,-750000.125,0.579345703125,0.699951171875,0.412841796875,-2.014159917831421,-0.2441406100988388,0.6713866591453552,60.0,190153.0,1.0
23569.0169529,287479.84375,283139.21875,-592724.8125,-567853.1875,-418729.8125,-641099.5625,-546017.625,-750000.125,0.579345703125,0.701904296875,0.412353515625,-1.9836424589157104,-0.3662109076976776,0.7324218153953552,60.0,190154.0,1.0
23569.0188647,288138.21875,285065.40625,-593133.4375,-567831.25,-418162.90625,-640910.75,-546054.6875,-750000.125,0.580078125,0.701416015625,0.41162109375,-1.9836424589157104,-0.2136230319738388,0.8239745497703552,60.0,190155.0,1.0
23569.0326421,285822.59375,295237.40625,-593913.875,-567181.4375,-403495.125,-638847.6875,-542900.8125,-750000.125,0.581298828125,0.70166015625,0.415283203125,-2.075195074081421,-0.1831054538488388,0.8850097060203552,60.0,190156.0,1.0
23569.0400563,284955.59375,294038.375,-593565.0625,-567157.9375,-402834.34375,-638873.875,-542598.875,-750000.125,0.58056640625,0.699951171875,0.41357421875,-2.044677495956421,-0.3356933295726776,0.8850097060203552,60.0,190157.0,1.0
23569.0400624,287023.15625,284112.0625,-592784.625,-567779.5625,-416842.96875,-640861.625,-545599.6875,-750000.125,0.580078125,0.700439453125,0.412353515625,-2.044677495956421,-0.3356933295726776,0.7934569716453552,60.0,190158.0,1.0
23569.0400648,288199.65625,283619.78125,-593007.5625,-567910.5625,-419758.09375,-641161.0625,-546381.25,-750000.125,0.578857421875,0.700927734375,0.410888671875,-2.105712652206421,-0.3356933295726776,0.7019042372703552,60.0,190159.0,1.0
23569.0425944,286170.84375,293789.375,-593856.125,-567286.6875,-405652.8125,-639149.875,-543394.1875,-750000.125,0.5791015625,0.701904296875,0.414306640625,-2.166747808456421,-0.3051757514476776,0.7019042372703552,60.0,190160.0,1.0
23569.051956,284778.9375,295142.0,-593704.9375,-567102.5625,-401426.4375,-638664.9375,-542322.0,-750000.125,0.57861328125,0.703125,0.415771484375,-2.197265386581421,-0.3356933295726776,0.6713866591453552,60.0,190161.0,1.0
23569.0519622,286519.25,285483.46875,-592883.25,-567678.875,-414464.75,-640542.125,-545077.8125,-750000.125,0.577880859375,0.701904296875,0.41357421875,-2.105712652206421,-0.2136230319738388,0.6713866591453552,60.0,190162.0,1.0
23569.0607163,288118.75,282580.96875,-592901.4375,-567951.6875,-420676.46875,-641309.5,-546551.875,-750000.125,0.580078125,0.701416015625,0.41455078125,-2.105712652206421,-0.3051757514476776,0.8850097060203552,60.0,190163.0,1.0
23569.0607226,286525.5,291974.25,-593758.5625,-567405.6875,-408223.0625,-639509.125,-543964.0625,-750000.125,0.580810546875,0.69970703125,0.415283203125,-2.105712652206421,-0.3356933295726776,0.8544921278953552,60.0,190164.0,1.0
23569.0632104,284676.40625,295881.9375,-593830.375,-567068.5,-400574.3125,-638528.75,-542167.1875,-750000.125,0.57861328125,0.69970703125,0.415771484375,-2.075195074081421,-0.3662109076976776,0.7629393935203552,60.0,190165.0,1.0
23569.0632144,285988.53125,287038.625,-593019.4375,-567567.75,-411879.46875,-640184.125,-544510.6875,-750000.125,0.57861328125,0.7021484375,0.4130859375,-2.014159917831421,-0.2136230319738388,0.7019042372703552,60.0,190166.0,1.0
23569.0913679,287950.28125,281908.15625,-592830.9375,-567968.9375,-421018.71875,-641377.8125,-546593.0625,-750000.125,0.5810546875,0.70166015625,0.412841796875,-2.044677495956421,-0.2136230319738388,0.6713866591453552,60.0,190167.0,1.0
23569.095052,286937.40625,289867.09375,-593624.125,-567535.5,-411068.8125,-639910.0,-544573.5625,-750000.125,0.581787109375,0.700927734375,0.41162109375,-2.075195074081421,-0.2746581733226776,0.7019042372703552,60.0,190168.0,1.0
23569.095056,284799.59375,296106.28125,-593910.5625,-567072.4375,-400583.96875,-638508.8125,-542187.25,-750000.125,0.580078125,0.700439453125,0.413818359375,-1.9531248807907104,-0.3662109076976776,0.8239745497703552,60.0,190169.0,1.0
23569.0950583,285721.28125,288695.78125,-593152.0,-567473.875,-409509.0,-639865.3125,-544007.625,-750000.125,0.578125,0.7021484375,0.416259765625,-2.044677495956421,-0.3662109076976776,0.8239745497703552,60.0,190170.0,1.0
23569.0988009,287875.5625,281623.3125,-592766.25,-567982.375,-421124.40625,-641420.5,-546582.3125,-750000.125,0.577880859375,0.70068359375,0.414794921875,-2.014159917831421,-0.2746581733226776,0.8239745497703552,60.0,190171.0,1.0
23569.0988054,287371.75,287987.5,-593473.4375,-567669.4375,-413932.34375,-640319.1875,-545176.6875,-750000.125,0.578125,0.69921875,0.41845703125,-2.014159917831421,-0.2136230319738388,0.7324218153953552,60.0,190172.0,1.0
23569.098807,285005.21875,296165.375,-593965.5625,-567101.875,-401117.53125,-638567.625,-542327.0,-750000.125,0.578369140625,0.699462890625,0.414794921875,-2.044677495956421,-0.2136230319738388,0.7629393935203552,60.0,190173.0,1.0
23569.1013634,285343.09375,290682.03125,-593312.625,-567366.4375,-406987.5625,-639508.1875,-543467.125,-750000.125,0.57861328125,0.69970703125,0.4111328125,-2.044677495956421,-0.2746581733226776,0.7629393935203552,60.0,190174.0,1.0
23569.1038791,287614.9375,282109.25,-592751.75,-567948.8125,-420201.28125,-641321.75,-546363.5625,-750000.125,0.577880859375,0.70068359375,0.411865234375,-2.075195074081421,-0.3051757514476776,0.7324218153953552,60.0,190175.0,1.0
23569.1063714,287713.53125,286239.40625,-593317.0625,-567789.5,-416447.8125,-640693.5,-545711.0625,-750000.125,0.58056640625,0.70068359375,0.41259765625,-1.9836424589157104,-0.3356933295726776,0.6408690810203552,60.0,190176.0,1.0
23569.1088829,285286.6875,295778.875,-593984.75,-567158.1875,-402202.3125,-638713.8125,-542600.4375,-750000.125,0.579833984375,0.70166015625,0.411376953125,-2.075195074081421,-0.3051757514476776,0.7934569716453552,60.0,190177.0,1.0
23569.1201189,285049.5,292508.1875,-593477.5625,-567274.6875,-404732.09375,-639187.9375,-542995.25,-750000.125,0.5810546875,0.703125,0.409912109375,-2.044677495956421,-0.3662109076976776,0.7324218153953552,60.0,190178.0,1.0
23569.1231982,287332.5,282990.4375,-592779.8125,-567895.4375,-418705.25,-641146.9375,-546033.5625,-750000.125,0.580078125,0.701416015625,0.412353515625,-2.075195074081421,-0.2441406100988388,0.7934569716453552,60.0,190179.0,1.0
23569.1232038,288016.0,284689.4375,-593177.0,-567890.375,-418458.28125,-641006.3125,-546144.9375,-750000.125,0.5791015625,0.7021484375,0.41162109375,-2.075195074081421,-0.2441406100988388,0.7934569716453552,60.0,190180.0,1.0
23569.1251156,285721.65625,294878.0,-593968.375,-567243.3125,-403853.65625,-638948.5,-543008.5,-750000.125,0.580078125,0.701904296875,0.411865234375,-2.075195074081421,-0.2136230319738388,0.7629393935203552,60.0,190181.0,1.0
23569.1338899,284914.46875,294073.5,-593635.25,-567199.125,-402817.15625,-638919.125,-542623.6875,-750000.125,0.57958984375,0.700439453125,0.414306640625,-2.075195074081421,-0.2136230319738388,0.6713866591453552,60.0,190182.0,1.0
23569.1382096,287032.875,284209.40625,-592844.3125,-567821.4375,-416712.875,-640905.75,-545618.6875,-750000.125,0.5810546875,0.7001953125,0.412353515625,-2.044677495956421,-0.2441406100988388,0.7629393935203552,60.0,190183.0,1.0
23569.1382141,288246.15625,283475.84375,-593048.25,-567967.3125,-419946.84375,-641251.5625,-546469.6875,-750000.125,0.580078125,0.701416015625,0.4140625,-2.075195074081421,-0.2746581733226776,0.7629393935203552,60.0,190184.0,1.0
23569.1513661,286261.75,293625.75,-593899.0,-567346.25,-405939.09375,-639249.375,-543505.125,-750000.125,0.580322265625,0.700927734375,0.413818359375,-1.9836424589157104,-0.2136230319738388,0.6713866591453552,60.0,190185.0,1.0
23569.1544513,284908.125,295343.34375,-593765.0,-567145.3125,-401383.875,-638713.8125,-542358.75,-750000.125,0.580322265625,0.699462890625,0.413818359375,-2.044677495956421,-0.3051757514476776,0.7629393935203552,60.0,190186.0,1.0
23569.1544573,286702.8125,285752.84375,-592933.8125,-567725.5625,-414315.625,-640599.0625,-545112.0625,-750000.125,0.579345703125,0.699951171875,0.411376953125,-2.105712652206421,-0.3967284858226776,0.7629393935203552,60.0,190187.0,1.0
23569.1563752,288350.75,282656.5,-592937.0,-568012.6875,-420803.875,-641409.4375,-546649.3125,-750000.125,0.5791015625,0.700927734375,0.411865234375,-2.105712652206421,-0.3662109076976776,0.7934569716453552,60.0,190188.0,1.0
23569.1601242,286793.8125,292044.34375,-593795.125,-567467.1875,-408387.84375,-639612.5625,-544072.9375,-750000.125,0.580810546875,0.702880859375,0.413818359375,-1.9531248807907104,-0.2441406100988388,0.7324218153953552,60.0,190189.0,1.0
23569.1644476,284907.34375,296153.75,-593880.625,-567121.8125,-400489.53125,-638600.8125,-542230.4375,-750000.125,0.58154296875,0.703857421875,0.417236328125,-1.9836424589157104,-0.2441406100988388,0.7324218153953552,60.0,190190.0,1.0
23569.1644533,286166.53125,287375.6875,-593065.375,-567623.0,-411687.6875,-640255.3125,-544562.125,-750000.125,0.581787109375,0.702392578125,0.413818359375,-2.014159917831421,-0.3662109076976776,0.8239745497703552,60.0,190191.0,1.0
23569.1726204,288150.375,282042.375,-592860.625,-568037.3125,-421106.53125,-641489.375,-546702.0625,-750000.125,0.58203125,0.69921875,0.411376953125,-2.044677495956421,-0.3967284858226776,0.7324218153953552,60.0,190192.0,1.0
23569.1769623,287133.84375,290036.78125,-593663.625,-567601.1875,-411132.71875,-640014.0,-544683.8125,-750000.125,0.579833984375,0.698486328125,0.412841796875,-2.014159917831421,-0.3662109076976776,0.7019042372703552,60.0,190193.0,1.0
23569.1769682,284915.09375,296433.59375,-593970.1875,-567124.9375,-400337.65625,-638569.0,-542240.9375,-750000.125,0.579833984375,0.699462890625,0.414794921875,-1.9836424589157104,-0.3051757514476776,0.6408690810203552,60.0,190194.0,1.0
23569.1826155,285671.84375,289051.78125,-593219.4375,-567513.5625,-409065.65625,-639886.375,-543998.75,-750000.125,0.580078125,0.70068359375,0.4140625,-1.9226073026657104,-0.2746581733226776,0.6408690810203552,60.0,190195.0,1.0
23569.1919483,287836.5625,281790.0625,-592813.1875,-568029.9375,-420904.5625,-641471.5625,-546612.625,-750000.125,0.57861328125,0.70068359375,0.41357421875,-1.9836424589157104,-0.2136230319738388,0.7019042372703552,60.0,190196.0,1.0
23569.1919541,287371.5625,287953.25,-593513.4375,-567730.0625,-413991.53125,-640409.875,-545272.625,-750000.125,0.578125,0.700439453125,0.4150390625,-2.105712652206421,-0.2746581733226776,0.6713866591453552,60.0,190197.0,1.0
23569.1938645,284996.75,296272.125,-594023.375,-567153.375,-401022.15625,-638629.6875,-542391.6875,-750000.125,0.579833984375,0.700439453125,0.412109375,-2.075195074081421,-0.3967284858226776,0.7629393935203552,60.0,190198.0,1.0
23569.2032151,285313.3125,290969.3125,-593384.75,-567404.9375,-406611.96875,-639529.1875,-543463.125,-750000.125,0.57763671875,0.699951171875,0.411376953125,-2.105712652206421,-0.3051757514476776,0.7629393935203552,60.0,190199.0,1.0
23569.2032216,287655.53125,282259.4375,-592807.4375,-567997.125,-419943.0,-641371.625,-546391.875,-750000.125,0.578857421875,0.7001953125,0.41357421875,-2.105712652206421,-0.2441406100988388,0.7019042372703552,60.0,190200.0,1.0
23569.2051214,287830.59375,286127.28125,-593359.8125,-567850.5625,-416466.21875,-640783.0625,-545805.5,-750000.125,0.579345703125,0.701171875,0.416748046875,-2.136230230331421,-0.2441406100988388,0.7324218153953552,60.0,190201.0,1.0
23569.2088682,285412.46875,295768.40625,-594040.1875,-567214.6875,-402131.59375,-638784.625,-542680.0,-750000.125,0.57861328125,0.702392578125,0.41455078125,-2.075195074081421,-0.2136230319738388,0.6408690810203552,60.0,190202.0,1.0
23569.2232069,285115.1875,292759.0625,-593548.4375,-567316.0625,-404290.875,-639209.875,-542998.4375,-750000.125,0.58056640625,0.699951171875,0.41162109375,-2.014159917831421,-0.3967284858226776,0.6103515028953552,60.0,190203.0,1.0
23569.2232131,287371.28125,283189.8125,-592840.0,-567937.5,-418260.625,-641180.5625,-546038.9375,-750000.125,0.579833984375,0.700439453125,0.41064453125,-2.075195074081421,-0.2746581733226776,0.6408690810203552,60.0,190204.0,1.0
23569.2307154,288124.46875,284631.5,-593212.5625,-567945.25,-418383.90625,-641087.5625,-546224.1875,-750000.125,0.57763671875,0.699462890625,0.40966796875,-2.105712652206421,-0.2746581733226776,0.7019042372703552,60.0,190205.0,1.0
23569.2307219,285855.65625,294853.40625,-594010.6875,-567298.1875,-403758.8125,-639025.5,-543089.5,-750000.125,0.578125,0.7001953125,0.412841796875,-1.9836424589157104,-0.3051757514476776,0.6713866591453552,60.0,190206.0,1.0
23569.2326295,284881.75,294162.21875,-593700.5625,-567243.375,-402383.1875,-638950.6875,-542633.0625,-750000.125,0.5791015625,0.700927734375,0.412109375,-1.9836424589157104,-0.3051757514476776,0.6103515028953552,60.0,190207.0,1.0
23569.2351216,286901.8125,284206.375,-592903.375,-567859.75,-416319.3125,-640930.875,-545607.875,-750000.125,0.580078125,0.701416015625,0.411376953125,-2.105712652206421,-0.2441406100988388,0.6713866591453552,60.0,190208.0,1.0
23569.2388618,288154.78125,283215.3125,-593087.375,-568020.0,-419921.0,-641326.75,-546534.9375,-750000.125,0.579833984375,0.700439453125,0.41015625,-1.9531248807907104,-0.2441406100988388,0.7019042372703552,60.0,190209.0,1.0
23569.2532189,286176.375,293302.90625,-593951.5,-567409.6875,-406042.4375,-639344.5,-543610.4375,-750000.125,0.57861328125,0.70068359375,0.4140625,-2.014159917831421,-0.3967284858226776,0.7019042372703552,60.0,190210.0,1.0
23569.2532251,284680.875,295201.5625,-593848.4375,-567191.25,-401049.6875,-638750.5,-542372.625,-750000.125,0.57861328125,0.701416015625,0.41259765625,-1.9836424589157104,-0.3051757514476776,0.5493163466453552,60.0,190211.0,1.0
23569.2551193,286347.21875,285517.96875,-593014.9375,-567759.4375,-413953.78125,-640606.6875,-545079.0625,-750000.125,0.576904296875,0.700927734375,0.4140625,-1.9836424589157104,-0.3662109076976776,0.6103515028953552,60.0,190212.0,1.0
23569.2576206,288004.375,282163.15625,-592987.6875,-568063.0,-420937.09375,-641475.5,-546701.5,-750000.125,0.5791015625,0.70263671875,0.410888671875,-2.044677495956421,-0.3356933295726776,0.6408690810203552,60.0,190213.0,1.0
23569.2601214,286511.65625,291429.75,-593838.5625,-567530.5625,-408814.6875,-639716.6875,-544189.875,-750000.125,0.5791015625,0.702880859375,0.409423828125,-1.9226073026657104,-0.3662109076976776,0.6713866591453552,60.0,190214.0,1.0
23569.2639325,284663.4375,295840.90625,-593946.4375,-567169.375,-400652.28125,-638657.3125,-542277.5,-750000.125,0.580322265625,0.7021484375,0.414306640625,-1.9531248807907104,-0.2746581733226776,0.6408690810203552,60.0,190215.0,1.0
23569.2710013,285989.0625,287216.1875,-593135.5625,-567659.25,-411610.15625,-640279.6875,-544553.5,-750000.125,0.579345703125,0.700927734375,0.41259765625,-2.014159917831421,-0.3356933295726776,0.7629393935203552,60.0,190216.0,1.0
23569.2710112,287954.6875,281682.34375,-592906.9375,-568084.75,-421359.1875,-641553.9375,-546749.4375,-750000.125,0.57958984375,0.701416015625,0.412841796875,-2.044677495956421,-0.3662109076976776,0.7019042372703552,60.0,190217.0,1.0
23569.2844475,286982.46875,289552.46875,-593701.1875,-567662.5625,-411684.1875,-640120.0,-544796.875,-750000.125,0.57958984375,0.70068359375,0.41357421875,-2.014159917831421,-0.4272460639476776,0.6408690810203552,60.0,190218.0,1.0
23569.284454,284789.65625,296218.125,-594029.8125,-567175.4375,-400663.875,-638640.125,-542300.625,-750000.125,0.5791015625,0.701416015625,0.416015625,-1.8920897245407104,-0.4272460639476776,0.6713866591453552,60.0,190219.0,1.0
23569.2863601,285598.34375,289142.71875,-593288.375,-567549.0,-409022.5625,-639914.625,-543988.375,-750000.125,0.580810546875,0.700927734375,0.414306640625,-1.9531248807907104,-0.4272460639476776,0.7934569716453552,60.0,190220.0,1.0
23569.2888802,287784.0,281723.1875,-592863.6875,-568072.9375,-421017.9375,-641527.3125,-546639.0,-750000.125,0.579345703125,0.699951171875,0.4169921875,-2.044677495956421,-0.4272460639476776,0.7019042372703552,60.0,190221.0,1.0
23569.2956958,287405.28125,287674.9375,-593547.375,-567789.9375,-414470.5625,-640515.625,-545378.9375,-750000.125,0.580322265625,0.70068359375,0.41455078125,-2.044677495956421,-0.3356933295726776,0.6713866591453552,60.0,190222.0,1.0
23569.2957021,285017.5625,296173.5,-594079.375,-567207.8125,-401296.8125,-638710.25,-542463.25,-750000.125,0.579833984375,0.69970703125,0.413818359375,-2.136230230331421,-0.2136230319738388,0.7629393935203552,60.0,190223.0,1.0
23569.3013659,285247.0625,291068.1875,-593453.0625,-567446.875,-406561.25,-639565.875,-543464.125,-750000.125,0.577880859375,0.700439453125,0.41455078125,-2.014159917831421,-0.2441406100988388,0.7629393935203552,60.0,190224.0,1.0
23569.3056974,287524.4375,282207.25,-592859.125,-568042.0625,-420065.28125,-641424.0,-546413.5625,-750000.125,0.57958984375,0.702880859375,0.419921875,-2.075195074081421,-0.3356933295726776,0.7629393935203552,60.0,190225.0,1.0
23569.3057034,287719.96875,285928.8125,-593395.5,-567907.6875,-416948.03125,-640879.625,-545899.0,-750000.125,0.58056640625,0.702392578125,0.414794921875,-2.044677495956421,-0.3051757514476776,0.7324218153953552,60.0,190226.0,1.0
23569.3113805,285305.375,295650.03125,-594092.125,-567269.75,-402553.59375,-638874.25,-542768.125,-750000.125,0.580322265625,0.70166015625,0.41162109375,-2.014159917831421,-0.3051757514476776,0.7019042372703552,60.0,190227.0,1.0
23569.3157075,284965.71875,292849.96875,-593616.6875,-567354.6875,-404390.8125,-639251.0625,-543010.25,-750000.125,0.57958984375,0.701171875,0.412841796875,-2.044677495956421,-0.3356933295726776,0.6713866591453552,60.0,190228.0,1.0
23569.3157119,287242.5625,283169.625,-592892.0,-567980.8125,-418490.3125,-641232.9375,-546066.1875,-750000.125,0.57861328125,0.7001953125,0.41796875,-2.014159917831421,-0.3662109076976776,0.7629393935203552,60.0,190229.0,1.0
23569.3238667,288047.03125,284414.15625,-593252.9375,-568003.375,-418907.28125,-641183.0,-546318.4375,-750000.125,0.5791015625,0.699462890625,0.4169921875,-2.075195074081421,-0.3051757514476776,0.7629393935203552,60.0,190230.0,1.0
23569.3282096,285804.96875,294686.5,-594060.75,-567356.25,-404277.28125,-639117.9375,-543186.5625,-750000.125,0.5791015625,0.700927734375,0.415283203125,-2.044677495956421,-0.1831054538488388,0.6713866591453552,60.0,190231.0,1.0
23569.3282156,284868.15625,294360.34375,-593767.5625,-567284.8125,-402546.625,-638994.625,-542653.375,-750000.125,0.579833984375,0.69970703125,0.414794921875,-2.044677495956421,-0.1831054538488388,0.6408690810203552,60.0,190232.0,1.0
23569.3338783,286926.59375,284499.625,-592962.6875,-567899.1875,-416326.5625,-640968.0625,-545612.625,-750000.125,0.580810546875,0.700927734375,0.41455078125,-1.9531248807907104,-0.2136230319738388,0.6103515028953552,60.0,190233.0,1.0
23569.3376237,288236.84375,283306.125,-593127.0,-568071.3125,-420218.34375,-641404.8125,-546602.125,-750000.125,0.579345703125,0.70263671875,0.415771484375,-1.9836424589157104,-0.2441406100988388,0.7629393935203552,60.0,190234.0,1.0
23569.3413675,286317.1875,293345.375,-593987.0,-567464.875,-406457.09375,-639436.6875,-543703.8125,-750000.125,0.5810546875,0.699951171875,0.414306640625,-2.014159917831421,-0.3356933295726776,0.7629393935203552,60.0,190235.0,1.0
23569.3499665,284855.65625,295556.15625,-593897.9375,-567235.875,-401220.09375,-638806.0625,-542413.9375,-750000.125,0.58154296875,0.700927734375,0.414306640625,-1.9531248807907104,-0.4272460639476776,0.7934569716453552,60.0,190236.0,1.0
23569.3569645,286567.625,286143.46875,-593067.4375,-567798.8125,-413800.8125,-640644.6875,-545085.375,-750000.125,0.581298828125,0.70068359375,0.4111328125,-2.014159917831421,-0.3356933295726776,0.7019042372703552,60.0,190237.0,1.0
23569.3569702,288297.375,282576.03125,-593028.125,-568113.0625,-420914.84375,-641545.8125,-546754.1875,-750000.125,0.5810546875,0.701904296875,0.410400390625,-1.9836424589157104,-0.3051757514476776,0.7324218153953552,60.0,190238.0,1.0
23569.3588614,286855.6875,291677.5,-593875.0625,-567590.0625,-409008.5,-639814.625,-544292.625,-750000.125,0.58056640625,0.70361328125,0.414306640625,-2.105712652206421,-0.2746581733226776,0.7324218153953552,60.0,190239.0,1.0
23569.3626147,284957.84375,296349.375,-594004.4375,-567213.875,-400519.125,-638705.125,-542315.3125,-750000.125,0.579833984375,0.7021484375,0.4150390625,-2.044677495956421,-0.2441406100988388,0.7629393935203552,60.0,190240.0,1.0
23569.3719522,286228.0625,287936.53125,-593198.9375,-567695.1875,-411181.5625,-640302.125,-544542.0625,-750000.125,0.578857421875,0.698974609375,0.4130859375,-1.8920897245407104,-0.2136230319738388,0.7934569716453552,60.0,190241.0,1.0
23569.3719601,288277.53125,282214.46875,-592953.875,-568131.5625,-421082.84375,-641612.125,-546786.75,-750000.125,0.57861328125,0.699462890625,0.41259765625,-2.014159917831421,-0.2136230319738388,0.8544921278953552,60.0,190242.0,1.0
23569.3738778,287345.90625,289847.96875,-593743.0,-567721.8125,-411696.71875,-640215.4375,-544901.6875,-750000.125,0.57763671875,0.698486328125,0.412353515625,-2.075195074081421,-0.2746581733226776,0.7324218153953552,60.0,190243.0,1.0
23569.3851139,285072.65625,296686.6875,-594093.125,-567220.625,-400371.4375,-638691.0,-542353.75,-750000.125,0.579345703125,0.700439453125,0.41259765625,-2.136230230331421,-0.2746581733226776,0.7324218153953552,60.0,190244.0,1.0
23569.3881995,285722.71875,289718.59375,-593356.5,-567582.25,-408477.53125,-639931.125,-543985.0625,-750000.125,0.580078125,0.69970703125,0.415771484375,-2.105712652206421,-0.3356933295726776,0.7019042372703552,60.0,190245.0,1.0
23569.3882054,287965.9375,282138.9375,-592916.875,-568118.5,-420615.6875,-641577.25,-546676.875,-750000.125,0.580078125,0.70068359375,0.415283203125,-2.044677495956421,-0.3051757514476776,0.7629393935203552,60.0,190246.0,1.0
23569.3901162,287664.1875,287821.0,-593587.8125,-567849.0625,-414358.96875,-640607.625,-545483.1875,-750000.125,0.580078125,0.70068359375,0.414306640625,-2.044677495956421,-0.3051757514476776,0.8544921278953552,60.0,190247.0,1.0
23569.4044408,285243.9375,296438.59375,-594133.875,-567256.8125,-400988.625,-638773.125,-542533.0,-750000.125,0.579833984375,0.70068359375,0.416259765625,-2.014159917831421,-0.3051757514476776,0.7324218153953552,60.0,190248.0,1.0
23569.404449,285299.90625,291418.9375,-593518.125,-567479.875,-405968.59375,-639584.8125,-543460.0625,-750000.125,0.579833984375,0.702392578125,0.41357421875,-2.014159917831421,-0.3967284858226776,0.6408690810203552,60.0,190249.0,1.0
23569.4069532,287589.0,282426.1875,-592911.875,-568082.125,-419587.3125,-641465.0625,-546430.4375,-750000.125,0.579345703125,0.70068359375,0.41162109375,-1.9836424589157104,-0.2746581733226776,0.7629393935203552,60.0,190250.0,1.0
23569.4069593,287880.75,285845.75,-593431.4375,-567964.0,-416796.9375,-640969.5625,-545991.1875,-750000.125,0.578857421875,0.70166015625,0.4140625,-2.044677495956421,-0.1831054538488388,0.7019042372703552,60.0,190251.0,1.0
23569.4201216,285473.28125,295655.03125,-594137.3125,-567319.375,-402297.96875,-638945.125,-542842.4375,-750000.125,0.57861328125,0.7001953125,0.41552734375,-2.075195074081421,-0.1831054538488388,0.6713866591453552,60.0,190252.0,1.0
23569.4226112,284960.09375,292952.0,-593676.875,-567389.6875,-403813.59375,-639274.75,-543011.1875,-750000.125,0.580810546875,0.699951171875,0.417236328125,-2.105712652206421,-0.3051757514476776,0.6713866591453552,60.0,190253.0,1.0
23569.4257094,287127.9375,283118.21875,-592943.8125,-568018.375,-418043.4375,-641266.8125,-546069.625,-750000.125,0.581298828125,0.7001953125,0.415771484375,-2.075195074081421,-0.3662109076976776,0.6408690810203552,60.0,190254.0,1.0
23569.4257155,287932.0625,284181.4375,-593287.375,-568056.125,-418847.75,-641265.5,-546394.75,-750000.125,0.582763671875,0.701171875,0.414306640625,-2.075195074081421,-0.3967284858226776,0.7019042372703552,60.0,190255.0,1.0
23569.427617,285716.65625,294482.46875,-594104.125,-567410.875,-404262.6875,-639202.3125,-543275.875,-750000.125,0.58154296875,0.699951171875,0.4130859375,-2.075195074081421,-0.3051757514476776,0.7629393935203552,60.0,190256.0,1.0
23569.4313528,284745.875,294386.96875,-593830.1875,-567320.9375,-402201.0625,-639021.5625,-542660.4375,-750000.125,0.58203125,0.701171875,0.411865234375,-2.044677495956421,-0.3051757514476776,0.8239745497703552,60.0,190257.0,1.0
23569.4407007,286771.8125,284523.875,-593026.4375,-567931.75,-415888.375,-640986.125,-545592.25,-750000.125,0.5791015625,0.7001953125,0.4130859375,-1.9836424589157104,-0.3356933295726776,0.8850097060203552,60.0,190258.0,1.0
23569.4407074,288110.34375,283062.0625,-593170.0625,-568118.875,-420133.15625,-641473.625,-546655.5,-750000.125,0.579345703125,0.70068359375,0.4140625,-1.9226073026657104,-0.3662109076976776,0.7629393935203552,60.0,190259.0,1.0
23569.4432164,286243.78125,292997.3125,-594029.3125,-567522.1875,-406580.65625,-639532.875,-543805.8125,-750000.125,0.5791015625,0.70068359375,0.415771484375,-1.9836424589157104,-0.2746581733226776,0.7019042372703552,60.0,190260.0,1.0
23569.4432225,284748.4375,295453.25,-593962.25,-567279.5,-401027.0625,-638854.4375,-542449.75,-750000.125,0.579833984375,0.700927734375,0.41357421875,-1.8920897245407104,-0.2441406100988388,0.6408690810203552,60.0,190261.0,1.0
23569.4538245,286426.71875,286139.71875,-593133.25,-567833.6875,-413426.90625,-640670.4375,-545078.9375,-750000.125,0.580078125,0.700439453125,0.412353515625,-1.9836424589157104,-0.2746581733226776,0.6408690810203552,60.0,190262.0,1.0
23569.4567872,288184.71875,282369.96875,-593074.625,-568159.625,-420798.96875,-641610.3125,-546801.8125,-750000.125,0.580322265625,0.701171875,0.4111328125,-1.9531248807907104,-0.2136230319738388,0.7629393935203552,60.0,190263.0,1.0
23569.4567919,286787.46875,291326.75,-593918.0,-567649.875,-409127.0625,-639913.125,-544396.0625,-750000.125,0.579833984375,0.700927734375,0.41162109375,-2.075195074081421,-0.3662109076976776,0.7934569716453552,60.0,190264.0,1.0
23569.4626188,284798.53125,296143.71875,-594066.8125,-567259.6875,-400318.59375,-638762.625,-542357.6875,-750000.125,0.579833984375,0.7021484375,0.41162109375,-2.014159917831421,-0.3356933295726776,0.6713866591453552,60.0,190265.0,1.0
23569.4719609,285925.40625,287681.4375,-593264.4375,-567729.0625,-410893.5625,-640326.625,-544532.0625,-750000.125,0.579833984375,0.701904296875,0.411865234375,-2.044677495956421,-0.3662109076976776,0.8239745497703552,60.0,190266.0,1.0
23569.471967,287940.28125,281745.8125,-592999.0625,-568177.25,-421146.84375,-641675.0,-546829.75,-750000.125,0.58056640625,0.70068359375,0.411376953125,-2.075195074081421,-0.3051757514476776,0.7629393935203552,60.0,190267.0,1.0
23569.4738628,287083.59375,289259.40625,-593775.8125,-567781.5625,-412052.28125,-640319.125,-545006.625,-750000.125,0.5810546875,0.70068359375,0.41162109375,-2.044677495956421,-0.2136230319738388,0.7934569716453552,60.0,190268.0,1.0
23569.4776168,284843.21875,296322.53125,-594142.625,-567270.75,-400552.5625,-638762.4375,-542412.5625,-750000.125,0.58203125,0.701416015625,0.414306640625,-2.075195074081421,-0.2746581733226776,0.7324218153953552,60.0,190269.0,1.0
23569.4913501,285544.96875,289646.0625,-593421.0625,-567618.75,-408311.84375,-639961.25,-543973.0,-750000.125,0.58056640625,0.701171875,0.416015625,-2.014159917831421,-0.3356933295726776,0.7019042372703552,60.0,190270.0,1.0
23569.4950496,287810.5625,281918.46875,-592963.8125,-568161.625,-420594.21875,-641634.0625,-546698.3125,-750000.125,0.580078125,0.700439453125,0.41552734375,-2.014159917831421,-0.3356933295726776,0.6713866591453552,60.0,190271.0,1.0
23569.4950555,287546.09375,287367.71875,-593623.625,-567907.875,-414696.6875,-640712.5,-545585.0,-750000.125,0.579833984375,0.70166015625,0.4150390625,-2.044677495956421,-0.3662109076976776,0.7324218153953552,60.0,190272.0,1.0
23569.4950579,285109.46875,296143.09375,-594192.875,-567308.5,-401167.53125,-638848.75,-542605.25,-750000.125,0.581298828125,0.701416015625,0.412353515625,-1.9226073026657104,-0.2746581733226776,0.7324218153953552,60.0,190273.0,1.0
23569.4976525,285139.875,291342.84375,-593589.5,-567516.0,-405816.3125,-639612.5625,-543459.5625,-750000.125,0.580322265625,0.700927734375,0.41357421875,-2.014159917831421,-0.2136230319738388,0.7324218153953552,60.0,190274.0,1.0
23569.5001191,287405.0,282233.78125,-592966.6875,-568121.375,-419579.09375,-641508.75,-546447.8125,-750000.125,0.579833984375,0.69921875,0.4130859375,-2.014159917831421,-0.1831054538488388,0.6713866591453552,60.0,190275.0,1.0
23569.5138859,287732.59375,285467.8125,-593468.375,-568020.375,-417190.3125,-641065.3125,-546088.625,-750000.125,0.579345703125,0.700439453125,0.4130859375,-2.044677495956421,-0.2441406100988388,0.6713866591453552,60.0,190276.0,1.0
23569.516969,285338.71875,295363.375,-594190.9375,-567376.625,-402651.40625,-639033.625,-542935.0,-750000.125,0.579345703125,0.70166015625,0.41064453125,-2.044677495956421,-0.2441406100988388,0.6713866591453552,60.0,190277.0,1.0
23569.516975,284877.8125,293009.75,-593747.9375,-567430.6875,-403813.96875,-639313.8125,-543024.375,-750000.125,0.581787109375,0.699462890625,0.411865234375,-1.9836424589157104,-0.1831054538488388,0.7934569716453552,60.0,190278.0,1.0
23569.5281941,287091.4375,283194.46875,-593003.6875,-568058.0,-417973.25,-641306.0625,-546077.625,-750000.125,0.5791015625,0.70068359375,0.411865234375,-1.9836424589157104,-0.2441406100988388,0.6713866591453552,60.0,190279.0,1.0
23569.5281998,287963.53125,284015.84375,-593327.0625,-568112.1875,-419136.96875,-641356.0,-546480.875,-750000.125,0.580078125,0.700927734375,0.41455078125,-2.136230230331421,-0.3967284858226776,0.7934569716453552,60.0,190280.0,1.0
23569.5350343,285767.25,294307.9375,-594150.625,-567469.3125,-404598.78125,-639298.875,-543377.5625,-750000.125,0.58154296875,0.700927734375,0.4130859375,-2.075195074081421,-0.3051757514476776,0.7629393935203552,60.0,190281.0,1.0
23569.5350403,284732.375,294454.46875,-593896.625,-567364.8125,-402185.96875,-639071.4375,-542687.3125,-750000.125,0.5810546875,0.70166015625,0.4091796875,-2.105712652206421,-0.3662109076976776,0.7629393935203552,60.0,190282.0,1.0
23569.5350427,286749.03125,284571.78125,-593082.75,-567974.75,-415864.96875,-641033.875,-545611.375,-750000.125,0.58056640625,0.700927734375,0.411865234375,-2.075195074081421,-0.2746581733226776,0.7934569716453552,60.0,190283.0,1.0
23569.5381765,288155.84375,282886.71875,-593205.6875,-568175.9375,-420444.46875,-641567.625,-546744.875,-750000.125,0.580322265625,0.700439453125,0.414306640625,-1.9531248807907104,-0.3051757514476776,0.7324218153953552,60.0,190284.0,1.0
23569.5381837,286320.3125,292807.78125,-594069.625,-567582.875,-406954.375,-639634.1875,-543914.5,-750000.125,0.581298828125,0.7001953125,0.415771484375,-1.9531248807907104,-0.3356933295726776,0.6408690810203552,60.0,190285.0,1.0
23569.5463779,284765.15625,295520.5625,-594023.375,-567323.4375,-401040.28125,-638906.5,-542480.625,-750000.125,0.58154296875,0.699951171875,0.414794921875,-1.9531248807907104,-0.2746581733226776,0.6103515028953552,60.0,190286.0,1.0
23569.5507013,286390.59375,286252.28125,-593195.0,-567873.5625,-413308.71875,-640705.4375,-545078.625,-750000.125,0.581787109375,0.699462890625,0.413330078125,-1.9531248807907104,-0.2441406100988388,0.7629393935203552,60.0,190287.0,1.0
23569.5507073,288176.84375,282265.09375,-593114.625,-568209.5625,-420981.625,-641684.375,-546860.9375,-750000.125,0.581298828125,0.699951171875,0.412841796875,-1.9531248807907104,-0.2136230319738388,0.7324218153953552,60.0,190288.0,1.0
23569.5587106,286831.28125,291115.65625,-593952.375,-567706.25,-409528.3125,-640012.5625,-544504.375,-750000.125,0.578369140625,0.700439453125,0.41015625,-2.014159917831421,-0.2136230319738388,0.7629393935203552,60.0,190289.0,1.0
23569.5656994,284857.4375,296235.625,-594127.4375,-567304.625,-400452.1875,-638817.6875,-542406.5,-750000.125,0.578857421875,0.69921875,0.4130859375,-2.075195074081421,-0.2441406100988388,0.8239745497703552,60.0,190290.0,1.0
23569.5657043,286035.5625,288104.4375,-593334.9375,-567764.625,-410630.8125,-640350.125,-544524.8125,-750000.125,0.579833984375,0.70068359375,0.41259765625,-2.014159917831421,-0.2136230319738388,0.7019042372703552,60.0,190291.0,1.0
23569.5794432,288147.4375,281993.09375,-593049.0,-568223.375,-421016.6875,-641733.8125,-546870.0625,-750000.125,0.580810546875,0.700439453125,0.411376953125,-2.044677495956421,-0.2136230319738388,0.6103515028953552,60.0,190292.0,1.0
23569.5794478,287369.875,289263.59375,-593810.875,-567839.0625,-412226.1875,-640417.125,-545113.125,-750000.125,0.57958984375,0.70068359375,0.41064453125,-2.044677495956421,-0.3356933295726776,0.6713866591453552,60.0,190293.0,1.0
23569.5837965,285059.3125,296489.75,-594200.125,-567318.5,-400442.875,-638824.6875,-542472.5625,-750000.125,0.5791015625,0.69970703125,0.416259765625,-2.044677495956421,-0.2136230319738388,0.8239745497703552,60.0,190294.0,1.0
23569.5838022,285574.84375,289909.125,-593491.0625,-567656.5625,-407921.21875,-639984.625,-543968.8125,-750000.125,0.578369140625,0.701416015625,0.417236328125,-2.044677495956421,-0.2136230319738388,0.7324218153953552,60.0,190295.0,1.0
23569.5838045,287842.03125,282017.25,-593014.625,-568207.5,-420418.0,-641685.625,-546729.625,-750000.125,0.579345703125,0.699951171875,0.4150390625,-2.044677495956421,-0.3051757514476776,0.7324218153953552,60.0,190296.0,1.0
23569.5863817,287661.5,287260.34375,-593657.1875,-567967.0625,-414846.59375,-640807.3125,-545685.0625,-750000.125,0.5791015625,0.699951171875,0.416259765625,-2.136230230331421,-0.2441406100988388,0.6713866591453552,60.0,190297.0,1.0
23569.6001135,285220.875,296159.5625,-594240.4375,-567362.3125,-401175.3125,-638924.1875,-542679.25,-750000.125,0.579833984375,0.70166015625,0.414794921875,-2.105712652206421,-0.2441406100988388,0.6408690810203552,60.0,190298.0,1.0
23569.6075663,285160.71875,291569.59375,-593655.0,-567556.9375,-405483.28125,-639645.4375,-543460.8125,-750000.125,0.579833984375,0.700439453125,0.414306640625,-2.044677495956421,-0.3051757514476776,0.7629393935203552,60.0,190299.0,1.0
23569.607572,287408.65625,282349.5625,-593017.1875,-568164.625,-419333.59375,-641556.6875,-546462.5625,-750000.125,0.579345703125,0.699462890625,0.41650390625,-2.044677495956421,-0.3356933295726776,0.7629393935203552,60.0,190300.0,1.0
23569.6075743,287791.15625,285365.0,-593502.5,-568076.4375,-417289.125,-641158.125,-546176.25,-750000.125,0.580322265625,0.701904296875,0.416015625,-2.014159917831421,-0.3662109076976776,0.7019042372703552,60.0,190301.0,1.0
23569.610696,285414.28125,295342.09375,-594237.25,-567430.25,-402704.4375,-639114.375,-543016.4375,-750000.125,0.5791015625,0.7001953125,0.416015625,-2.075195074081421,-0.2746581733226776,0.6103515028953552,60.0,190302.0,1.0
23569.6107012,284886.3125,293223.6875,-593812.9375,-567470.875,-403518.65625,-639347.375,-543032.625,-750000.125,0.57958984375,0.70068359375,0.41748046875,-2.044677495956421,-0.3051757514476776,0.6408690810203552,60.0,190303.0,1.0
23569.618863,287079.65625,283339.03125,-593057.25,-568099.9375,-417707.53125,-641351.25,-546090.25,-750000.125,0.580322265625,0.700439453125,0.414794921875,-1.9836424589157104,-0.2746581733226776,0.6103515028953552,60.0,190304.0,1.0
23569.6231937,287974.34375,283939.84375,-593364.8125,-568164.9375,-419185.71875,-641441.125,-546558.625,-750000.125,0.580810546875,0.700927734375,0.416748046875,-2.044677495956421,-0.3051757514476776,0.6408690810203552,60.0,190305.0,1.0
23569.6231996,285800.6875,294223.71875,-594195.3125,-567525.9375,-404719.375,-639389.75,-543475.4375,-750000.125,0.581787109375,0.70263671875,0.41650390625,-1.9836424589157104,-0.3356933295726776,0.6103515028953552,60.0,190306.0,1.0
23569.6313617,284726.375,294651.78125,-593960.625,-567404.625,-401942.40625,-639110.1875,-542710.8125,-750000.125,0.58056640625,0.70068359375,0.4150390625,-2.014159917831421,-0.3356933295726776,0.6103515028953552,60.0,190307.0,1.0
23569.6376121,286712.53125,284808.53125,-593141.1875,-568009.875,-415514.84375,-641065.125,-545613.375,-750000.125,0.5810546875,0.700927734375,0.415771484375,-2.044677495956421,-0.1831054538488388,0.7629393935203552,60.0,190308.0,1.0
23569.6401108,288156.125,282890.9375,-593245.5625,-568226.1875,-420406.375,-641644.375,-546814.0625,-750000.125,0.57958984375,0.70068359375,0.412841796875,-2.044677495956421,-0.3356933295726776,0.8850097060203552,60.0,190309.0,1.0
23569.6426073,286373.25,292756.46875,-594108.9375,-567638.75,-407064.4375,-639726.875,-544017.6875,-750000.125,0.58056640625,0.70068359375,0.410400390625,-1.9836424589157104,-0.3662109076976776,0.8850097060203552,60.0,190310.0,1.0
23569.6463759,284774.75,295723.0625,-594084.375,-567363.5625,-400812.3125,-638945.3125,-542511.375,-750000.125,0.580322265625,0.698974609375,0.41162109375,-2.075195074081421,-0.2746581733226776,0.7019042372703552,60.0,190311.0,1.0
23569.655701,286364.84375,286529.0,-593256.1875,-567907.9375,-412919.25,-640729.6875,-545073.0,-750000.125,0.580322265625,0.699951171875,0.41259765625,-1.9531248807907104,-0.2441406100988388,0.7629393935203552,60.0,190312.0,1.0
23569.6557075,288194.65625,282294.59375,-593154.625,-568259.5,-420908.84375,-641757.625,-546922.6875,-750000.125,0.58056640625,0.698974609375,0.413818359375,-1.9531248807907104,-0.3051757514476776,0.7629393935203552,60.0,190313.0,1.0
23569.6581856,286901.375,291042.15625,-593990.125,-567766.25,-409638.46875,-640110.6875,-544609.9375,-750000.125,0.580078125,0.7001953125,0.41552734375,-2.044677495956421,-0.1831054538488388,0.7019042372703552,60.0,190314.0,1.0
23569.6581905,284829.46875,296336.3125,-594187.875,-567352.1875,-400206.40625,-638873.25,-542447.4375,-750000.125,0.58154296875,0.698974609375,0.413330078125,-2.044677495956421,-0.3051757514476776,0.7629393935203552,60.0,190315.0,1.0
23569.6688646,285840.03125,288189.90625,-593399.875,-567799.3125,-410252.4375,-640370.6875,-544507.5,-750000.125,0.57958984375,0.69921875,0.4130859375,-2.075195074081421,-0.3051757514476776,0.7629393935203552,60.0,190316.0,1.0
23569.6713695,287949.75,281830.5625,-593092.9375,-568269.625,-420949.8125,-641794.25,-546907.1875,-750000.125,0.579833984375,0.699462890625,0.416015625,-2.044677495956421,-0.3051757514476776,0.7324218153953552,60.0,190317.0,1.0
23569.6738714,287214.21875,288902.125,-593848.4375,-567900.875,-412488.84375,-640521.375,-545225.875,-750000.125,0.57958984375,0.700927734375,0.413330078125,-1.9836424589157104,-0.2441406100988388,0.7019042372703552,60.0,190318.0,1.0
23569.6775957,284877.65625,296374.03125,-594265.3125,-567364.375,-400411.59375,-638882.6875,-542523.375,-750000.125,0.578857421875,0.702880859375,0.4130859375,-2.075195074081421,-0.2136230319738388,0.7324218153953552,60.0,190319.0,1.0
23569.6869405,285333.25,289951.40625,-593568.8125,-567681.4375,-407558.34375,-639987.3125,-543928.9375,-750000.125,0.5791015625,0.69921875,0.413818359375,-1.9226073026657104,-0.1831054538488388,0.6713866591453552,60.0,190320.0,1.0
23569.6869463,287559.59375,281827.625,-593071.0,-568241.625,-420328.78125,-641720.3125,-546731.1875,-750000.125,0.580078125,0.70068359375,0.414306640625,-1.9836424589157104,-0.1831054538488388,0.7019042372703552,60.0,190321.0,1.0
23569.688873,287445.875,286822.4375,-593689.4375,-568022.3125,-415258.15625,-640907.9375,-545788.5625,-750000.125,0.58056640625,0.701171875,0.41650390625,-1.9531248807907104,-0.3662109076976776,0.7629393935203552,60.0,190322.0,1.0
23569.7006952,285041.71875,295895.90625,-594291.875,-567412.5625,-401482.6875,-639003.5,-542759.0625,-750000.125,0.5791015625,0.701416015625,0.41455078125,-1.9836424589157104,-0.3051757514476776,0.7629393935203552,60.0,190323.0,1.0
23569.7007017,285058.34375,291661.5,-593721.375,-567590.5625,-405427.84375,-639673.0625,-543460.6875,-750000.125,0.5791015625,0.700439453125,0.41259765625,-1.9531248807907104,-0.3051757514476776,0.7629393935203552,60.0,190324.0,1.0
23569.7026084,287337.6875,282364.9375,-593070.375,-568203.8125,-419307.75,-641599.6875,-546478.125,-750000.125,0.579345703125,0.700439453125,0.415771484375,-2.044677495956421,-0.3967284858226776,0.7934569716453552,60.0,190325.0,1.0
23569.7063606,287778.28125,285126.28125,-593539.1875,-568133.875,-417630.75,-641254.125,-546273.25,-750000.125,0.581298828125,0.700439453125,0.4169921875,-2.075195074081421,-0.2136230319738388,0.7629393935203552,60.0,190326.0,1.0
23569.7369616,285421.15625,295175.625,-594284.4375,-567484.25,-403002.5,-639202.8125,-543108.625,-750000.125,0.581298828125,0.700927734375,0.413330078125,-2.014159917831421,-0.2746581733226776,0.8239745497703552,60.0,190327.0,1.0
23569.7369679,284831.78125,293324.90625,-593877.8125,-567507.125,-403436.3125,-639383.3125,-543041.375,-750000.125,0.578125,0.700439453125,0.41357421875,-2.075195074081421,-0.3662109076976776,0.7324218153953552,60.0,190328.0,1.0
23569.7413721,286996.0625,283420.75,-593116.6875,-568136.75,-417584.59375,-641383.875,-546089.25,-750000.125,0.578369140625,0.698486328125,0.41259765625,-2.014159917831421,-0.3356933295726776,0.7934569716453552,60.0,190329.0,1.0
23569.7438641,287972.125,283750.9375,-593400.75,-568220.0625,-419463.6875,-641531.0625,-546642.875,-750000.125,0.578857421875,0.70068359375,0.410888671875,-2.044677495956421,-0.3356933295726776,0.7324218153953552,60.0,190330.0,1.0
23569.7463606,285842.09375,294046.5,-594237.6875,-567583.25,-405048.5,-639485.3125,-543575.4375,-750000.125,0.580322265625,0.69921875,0.411865234375,-2.105712652206421,-0.3967284858226776,0.6713866591453552,60.0,190331.0,1.0
23569.7488609,284694.8125,294731.28125,-594023.0,-567447.0625,-401905.5,-639157.1875,-542733.3125,-750000.125,0.580322265625,0.700927734375,0.41357421875,-2.136230230331421,-0.3662109076976776,0.6408690810203552,60.0,190332.0,1.0
23569.7513633,286639.15625,284917.625,-593198.4375,-568048.25,-415384.75,-641099.5625,-545611.5625,-750000.125,0.579833984375,0.701171875,0.414306640625,-1.9836424589157104,-0.3662109076976776,0.7629393935203552,60.0,190333.0,1.0
23569.7538652,288112.9375,282775.96875,-593284.5,-568277.375,-420592.875,-641722.5625,-546878.125,-750000.125,0.580322265625,0.70068359375,0.412109375,-2.044677495956421,-0.3356933295726776,0.7629393935203552,60.0,190334.0,1.0
23569.7563631,286356.4375,292538.9375,-594150.6875,-567699.375,-407434.40625,-639831.125,-544129.3125,-750000.125,0.5791015625,0.699951171875,0.413818359375,-2.136230230331421,-0.4272460639476776,0.7934569716453552,60.0,190335.0,1.0
23569.7588665,284712.78125,295760.4375,-594151.3125,-567409.9375,-400837.96875,-639003.9375,-542552.125,-750000.125,0.58154296875,0.70166015625,0.414306640625,-2.075195074081421,-0.2746581733226776,0.7629393935203552,60.0,190336.0,1.0
23569.7613267,286259.53125,286663.90625,-593325.8125,-567946.3125,-412752.875,-640760.5,-545068.875,-750000.125,0.580322265625,0.70068359375,0.411376953125,-2.044677495956421,-0.3356933295726776,0.8239745497703552,60.0,190337.0,1.0
23569.7653533,288131.0625,282205.4375,-593202.75,-568311.1875,-421039.5625,-641830.4375,-546980.375,-750000.125,0.580322265625,0.701416015625,0.416748046875,-2.014159917831421,-0.3967284858226776,0.7934569716453552,60.0,190338.0,1.0
23569.7653579,286898.0625,290814.28125,-594031.4375,-567828.125,-410013.90625,-640215.3125,-544723.3125,-750000.125,0.578857421875,0.700927734375,0.412841796875,-2.014159917831421,-0.3051757514476776,0.7629393935203552,60.0,190339.0,1.0
23569.7701122,284803.96875,296346.0625,-594249.0625,-567399.625,-400298.65625,-638932.625,-542500.75,-750000.125,0.579345703125,0.702880859375,0.412353515625,-2.044677495956421,-0.1220703050494194,0.6103515028953552,60.0,190340.0,1.0
23569.7726087,285768.9375,288384.1875,-593468.0625,-567834.375,-410051.0,-640393.0625,-544497.8125,-750000.125,0.579345703125,0.69970703125,0.417724609375,-2.105712652206421,-0.3051757514476776,0.7019042372703552,60.0,190341.0,1.0
23569.7751049,287900.84375,281862.75,-593140.375,-568311.5625,-420941.84375,-641845.125,-546935.0625,-750000.125,0.579345703125,0.699951171875,0.4150390625,-2.044677495956421,-0.3662109076976776,0.6713866591453552,60.0,190342.0,1.0
23569.7782139,287247.46875,288727.59375,-593882.3125,-567959.5625,-412804.03125,-640620.6875,-545327.0,-750000.125,0.580078125,0.699462890625,0.415771484375,-2.044677495956421,-0.3662109076976776,0.7019042372703552,60.0,190343.0,1.0
23569.7782202,284936.5625,296376.8125,-594314.75,-567419.375,-400608.0,-638958.0625,-542598.125,-750000.125,0.578857421875,0.69970703125,0.41455078125,-2.044677495956421,-0.3051757514476776,0.7934569716453552,60.0,190344.0,1.0
23569.7800986,285455.125,290307.25,-593629.1875,-567729.9375,-407419.84375,-640033.9375,-543955.5625,-750000.125,0.580810546875,0.69970703125,0.4130859375,-2.014159917831421,-0.3051757514476776,0.7629393935203552,60.0,190345.0,1.0
23569.7944513,287755.84375,282135.4375,-593118.125,-568295.4375,-420187.96875,-641787.25,-546780.0,-750000.125,0.58056640625,0.700927734375,0.416015625,-2.105712652206421,-0.2441406100988388,0.6408690810203552,60.0,190346.0,1.0
23569.794457,287700.3125,286905.5625,-593728.625,-568086.6875,-415342.0,-641008.375,-545892.8125,-750000.125,0.579833984375,0.699951171875,0.41552734375,-1.9531248807907104,-0.3967284858226776,0.6408690810203552,60.0,190347.0,1.0
23569.7963665,285255.5625,296089.1875,-594345.5,-567466.0,-401382.71875,-639076.625,-542831.4375,-750000.125,0.57861328125,0.69873046875,0.412109375,-1.9531248807907104,-0.3967284858226776,0.7934569716453552,60.0,190348.0,1.0
23569.7988585,285090.34375,291980.21875,-593788.0625,-567627.125,-404989.40625,-639697.1875,-543455.0625,-750000.125,0.57861328125,0.700439453125,0.413330078125,-1.9836424589157104,-0.4577636420726776,0.7324218153953552,60.0,190349.0,1.0
23569.8013488,287371.375,282594.28125,-593123.125,-568243.0,-418957.1875,-641637.25,-546484.0625,-750000.125,0.577392578125,0.69921875,0.411376953125,-2.014159917831421,-0.3356933295726776,0.7324218153953552,60.0,190350.0,1.0
23569.8156784,287883.875,285043.21875,-593575.375,-568188.0625,-417621.09375,-641341.875,-546359.75,-750000.125,0.578857421875,0.700439453125,0.412353515625,-2.014159917831421,-0.3356933295726776,0.7324218153953552,60.0,190351.0,1.0
23569.8156851,285521.03125,295115.8125,-594337.8125,-567541.125,-402999.8125,-639287.625,-543204.25,-750000.125,0.579345703125,0.699951171875,0.413330078125,-2.014159917831421,-0.3356933295726776,0.7324218153953552,60.0,190352.0,1.0
23569.8176069,284876.84375,293553.34375,-593949.8125,-567546.3125,-403033.34375,-639410.375,-543054.0625,-750000.125,0.580322265625,0.700927734375,0.4130859375,-2.014159917831421,-0.3967284858226776,0.7019042372703552,60.0,190353.0,1.0
23569.8207054,287068.03125,283697.90625,-593178.25,-568174.0625,-417089.75,-641414.25,-546093.4375,-750000.125,0.579833984375,0.69970703125,0.4140625,-2.014159917831421,-0.3662109076976776,0.7629393935203552,60.0,190354.0,1.0
23569.8207113,288143.875,283725.46875,-593442.5,-568273.625,-419274.125,-641611.6875,-546722.5625,-750000.125,0.579833984375,0.698974609375,0.41357421875,-2.044677495956421,-0.3662109076976776,0.7934569716453552,60.0,190355.0,1.0
23569.8225998,286040.90625,293979.0,-594283.5,-567639.625,-404927.25,-639573.625,-543675.625,-750000.125,0.57861328125,0.701171875,0.413818359375,-2.105712652206421,-0.3356933295726776,0.7324218153953552,60.0,190356.0,1.0
23569.8388621,284733.4375,294800.46875,-594092.5,-567489.6875,-401399.25,-639193.9375,-542756.8125,-750000.125,0.579345703125,0.701171875,0.414306640625,-2.014159917831421,-0.2746581733226776,0.7324218153953552,60.0,190357.0,1.0
23569.841943,286531.75,284885.59375,-593267.5625,-568087.375,-414875.9375,-641124.125,-545605.125,-750000.125,0.578369140625,0.698974609375,0.41455078125,-2.044677495956421,-0.2136230319738388,0.7019042372703552,60.0,190358.0,1.0
23569.8419483,288015.84375,282520.96875,-593328.875,-568332.5625,-420509.375,-641800.125,-546947.5,-750000.125,0.580322265625,0.70166015625,0.413330078125,-2.044677495956421,-0.2746581733226776,0.8850097060203552,60.0,190359.0,1.0
23569.8438553,286319.875,292248.09375,-594190.0625,-567758.625,-407520.40625,-639925.625,-544232.125,-750000.125,0.580322265625,0.69970703125,0.412109375,-2.044677495956421,-0.3051757514476776,0.7629393935203552,60.0,190360.0,1.0
23569.8463557,284638.84375,295694.1875,-594210.875,-567454.875,-400622.59375,-639048.9375,-542586.3125,-750000.125,0.579345703125,0.70166015625,0.4140625,-2.014159917831421,-0.3967284858226776,0.7629393935203552,60.0,190361.0,1.0
23569.8601107,286161.34375,286641.5625,-593384.9375,-567983.25,-412415.09375,-640787.375,-545063.3125,-750000.125,0.580810546875,0.7001953125,0.41455078125,-2.014159917831421,-0.2441406100988388,0.7019042372703552,60.0,190362.0,1.0
23569.8637951,288063.75,281943.84375,-593242.3125,-568362.875,-421011.65625,-641904.0625,-547038.9375,-750000.125,0.580078125,0.7021484375,0.41357421875,-2.044677495956421,-0.2746581733226776,0.7629393935203552,60.0,190363.0,1.0
23569.8638011,286873.5625,290410.78125,-594068.0625,-567891.4375,-410221.75,-640322.1875,-544837.375,-750000.125,0.579345703125,0.70166015625,0.414306640625,-2.014159917831421,-0.3356933295726776,0.7324218153953552,60.0,190364.0,1.0
23569.8638036,284749.96875,296171.8125,-594308.5,-567450.5625,-400219.625,-638996.4375,-542555.4375,-750000.125,0.578369140625,0.702392578125,0.417236328125,-1.9836424589157104,-0.3356933295726776,0.7324218153953552,60.0,190365.0,1.0
23569.8663621,285666.75,288319.53125,-593533.25,-567873.125,-409745.59375,-640421.9375,-544493.625,-750000.125,0.578857421875,0.701416015625,0.4130859375,-2.075195074081421,-0.2746581733226776,0.7019042372703552,60.0,190366.0,1.0
23569.8688182,287758.15625,281608.3125,-593185.75,-568360.125,-420943.8125,-641908.9375,-546978.4375,-750000.125,0.581298828125,0.701171875,0.412841796875,-2.044677495956421,-0.3662109076976776,0.7934569716453552,60.0,190367.0,1.0
23569.8784066,287120.0625,288367.28125,-593918.4375,-568018.3125,-413090.75,-640718.9375,-545429.375,-750000.125,0.582763671875,0.700927734375,0.412841796875,-2.044677495956421,-0.3051757514476776,0.7324218153953552,60.0,190368.0,1.0
23569.8784148,284780.71875,296184.84375,-594372.875,-567466.1875,-400676.21875,-639022.0,-542654.25,-750000.125,0.58154296875,0.699951171875,0.412109375,-1.9836424589157104,-0.2746581733226776,0.8239745497703552,60.0,190369.0,1.0
23569.8800951,285264.6875,290254.125,-593699.8125,-567760.0,-407220.625,-640051.875,-543935.375,-750000.125,0.579833984375,0.701904296875,0.414306640625,-2.075195074081421,-0.3356933295726776,0.7629393935203552,60.0,190370.0,1.0
23569.8994369,287583.90625,281952.96875,-593171.4375,-568328.0625,-420123.0625,-641820.4375,-546779.6875,-750000.125,0.578369140625,0.702392578125,0.41455078125,-2.044677495956421,-0.3051757514476776,0.7324218153953552,60.0,190371.0,1.0
23569.8994422,287612.34375,286452.46875,-593762.5625,-568140.0,-415699.09375,-641102.3125,-545985.8125,-750000.125,0.57861328125,0.69921875,0.411865234375,-1.9836424589157104,-0.2746581733226776,0.6713866591453552,60.0,190372.0,1.0
23569.9013562,285189.84375,295760.8125,-594399.875,-567520.8125,-401672.84375,-639159.875,-542914.75,-750000.125,0.58056640625,0.701171875,0.411865234375,-1.9836424589157104,-0.3051757514476776,0.7629393935203552,60.0,190373.0,1.0
23569.9038778,285062.375,292022.6875,-593859.4375,-567668.8125,-404890.34375,-639734.5625,-543466.25,-750000.125,0.578857421875,0.702392578125,0.414794921875,-1.9836424589157104,-0.2746581733226776,0.7019042372703552,60.0,190374.0,1.0
23569.9063683,287340.71875,282588.46875,-593181.375,-568288.125,-418876.4375,-641686.1875,-546506.25,-750000.125,0.580810546875,0.70166015625,0.414794921875,-2.044677495956421,-0.3662109076976776,0.7934569716453552,60.0,190375.0,1.0
23569.9151158,287894.15625,284867.28125,-593614.0625,-568248.8125,-417920.5,-641439.5625,-546454.9375,-750000.125,0.581787109375,0.69921875,0.414794921875,-2.014159917831421,-0.3356933295726776,0.8239745497703552,60.0,190376.0,1.0
23569.9181834,285561.6875,295027.46875,-594383.5,-567597.625,-403243.375,-639375.25,-543290.375,-750000.125,0.581787109375,0.69921875,0.41455078125,-2.044677495956421,-0.3356933295726776,0.7324218153953552,60.0,190377.0,1.0
23569.9181906,284838.5,293700.9375,-594015.0625,-567587.875,-402929.46875,-639451.875,-543065.25,-750000.125,0.579345703125,0.701904296875,0.4130859375,-2.075195074081421,-0.2441406100988388,0.8239745497703552,60.0,190378.0,1.0
23569.9206956,286993.5625,283795.03125,-593235.375,-568216.25,-416988.625,-641456.375,-546098.8125,-750000.125,0.58056640625,0.700927734375,0.41259765625,-2.014159917831421,-0.3662109076976776,0.7629393935203552,60.0,190379.0,1.0
23569.9207021,288103.8125,283592.5,-593482.8125,-568329.1875,-419495.78125,-641698.0625,-546795.875,-750000.125,0.5810546875,0.70166015625,0.41259765625,-2.014159917831421,-0.2746581733226776,0.7934569716453552,60.0,190380.0,1.0
23569.926355,286034.75,293827.1875,-594329.4375,-567699.75,-405234.375,-639669.5625,-543773.0,-750000.125,0.5791015625,0.701904296875,0.414794921875,-2.014159917831421,-0.2746581733226776,0.7324218153953552,60.0,190381.0,1.0
23569.9356869,284702.0625,294898.375,-594155.5,-567533.6875,-401395.0625,-639242.375,-542786.3125,-750000.125,0.581298828125,0.699462890625,0.416748046875,-2.105712652206421,-0.3662109076976776,0.7019042372703552,60.0,190382.0,1.0
23569.9356932,286478.21875,285034.46875,-593326.75,-568124.3125,-414752.03125,-641158.375,-545605.9375,-750000.125,0.580322265625,0.70068359375,0.413818359375,-2.075195074081421,-0.4272460639476776,0.7324218153953552,60.0,190383.0,1.0
23569.9381873,288007.875,282452.40625,-593368.75,-568382.5625,-420689.53125,-641877.375,-547011.25,-750000.125,0.579833984375,0.699951171875,0.4140625,-2.075195074081421,-0.3356933295726776,0.7324218153953552,60.0,190384.0,1.0
23569.9381928,286349.71875,292082.875,-594230.75,-567818.4375,-407872.3125,-640027.1875,-544339.5625,-750000.125,0.57958984375,0.700439453125,0.416015625,-1.9836424589157104,-0.2746581733226776,0.7934569716453552,60.0,190385.0,1.0
23569.942614,284624.625,295767.3125,-594271.5625,-567499.3125,-400658.71875,-639106.125,-542626.875,-750000.125,0.579833984375,0.70068359375,0.414794921875,-2.014159917831421,-0.3051757514476776,0.7019042372703552,60.0,190386.0,1.0
23569.9513663,286103.3125,286813.75,-593449.75,-568020.6875,-412261.9375,-640818.625,-545060.1875,-750000.125,0.579833984375,0.699951171875,0.4140625,-2.105712652206421,-0.2746581733226776,0.7019042372703552,60.0,190387.0,1.0
23569.9606849,288041.75,281909.25,-593286.75,-568412.25,-421130.3125,-641973.8125,-547090.4375,-750000.125,0.57861328125,0.69873046875,0.415283203125,-1.9836424589157104,-0.3051757514476776,0.7324218153953552,60.0,190388.0,1.0
23569.9606908,286907.90625,290239.375,-594104.6875,-567949.5625,-410588.34375,-640422.1875,-544943.6875,-750000.125,0.577880859375,0.69873046875,0.41455078125,-2.044677495956421,-0.3662109076976776,0.6713866591453552,60.0,190389.0,1.0
23569.9631809,284800.125,296287.40625,-594365.75,-567495.4375,-400339.625,-639054.4375,-542604.625,-750000.125,0.57861328125,0.7001953125,0.412109375,-2.044677495956421,-0.3051757514476776,0.7019042372703552,60.0,190390.0,1.0
23569.9631853,285752.125,288769.09375,-593599.9375,-567906.5625,-409472.4375,-640445.625,-544483.0,-750000.125,0.5791015625,0.700439453125,0.413330078125,-1.9836424589157104,-0.2441406100988388,0.7324218153953552,60.0,190391.0,1.0
23569.9762258,287941.25,281892.875,-593234.1875,-568405.0,-420778.59375,-641966.875,-547013.75,-750000.125,0.579345703125,0.700439453125,0.413330078125,-1.9836424589157104,-0.2136230319738388,0.8239745497703552,60.0,190392.0,1.0
23569.9869594,287388.1875,288401.1875,-593956.0625,-568077.0625,-413215.125,-640818.5625,-545532.625,-750000.125,0.57958984375,0.700927734375,0.414306640625,-2.044677495956421,-0.3051757514476776,0.7324218153953552,60.0,190393.0,1.0
23569.9869664,284999.15625,296338.625,-594428.25,-567519.875,-400585.9375,-639098.8125,-542727.5,-750000.125,0.580078125,0.70068359375,0.416015625,-2.044677495956421,-0.2746581733226776,0.7019042372703552,60.0,190394.0,1.0
23569.9894316,285290.0,290489.46875,-593761.6875,-567799.9375,-406872.21875,-640086.5625,-543946.1875,-750000.125,0.5810546875,0.70166015625,0.4140625,-2.014159917831421,-0.3051757514476776,0.7629393935203552,60.0,190395.0,1.0
23569.9894363,287586.21875,282011.53125,-593218.625,-568379.3125,-419999.21875,-641883.9375,-546825.25,-750000.125,0.5791015625,0.7001953125,0.41552734375,-2.014159917831421,-0.3051757514476776,0.6713866591453552,60.0,190396.0,1.0
23569.9913608,287648.09375,286349.28125,-593800.875,-568199.4375,-415819.28125,-641196.1875,-546083.875,-750000.125,0.579345703125,0.700439453125,0.416015625,-2.044677495956421,-0.3051757514476776,0.7629393935203552,60.0,190397.0,1.0
23570.0006993,285228.75,295784.125,-594451.1875,-567572.125,-401671.78125,-639229.1875,-542989.25,-750000.125,0.5791015625,0.699462890625,0.416748046875,-2.075195074081421,-0.3662109076976776,0.7629393935203552,60.0,190398.0,1.0
23570.0007054,285042.875,292279.65625,-593926.5,-567705.8125,-404545.75,-639759.0,-543466.625,-750000.125,0.580322265625,0.7001953125,0.414306640625,-2.044677495956421,-0.3051757514476776,0.7019042372703552,60.0,190399.0,1.0
23570.0069314,287341.25,282788.65625,-593237.875,-568328.5625,-418527.3125,-641725.6875,-546514.3125,-750000.125,0.580078125,0.700439453125,0.414794921875,-2.014159917831421,-0.3967284858226776,0.7019042372703552,60.0,190400.0,1.0
23570.0069366,287981.9375,284755.78125,-593652.375,-568304.375,-417899.9375,-641528.0,-546539.625,-750000.125,0.57958984375,0.702880859375,0.414306640625,-2.014159917831421,-0.3356933295726776,0.7324218153953552,60.0,190401.0,1.0
23570.0126042,285665.84375,294943.09375,-594431.875,-567653.625,-403209.03125,-639461.1875,-543380.4375,-750000.125,0.58056640625,0.70068359375,0.413330078125,-2.136230230331421,-0.3356933295726776,0.7019042372703552,60.0,190402.0,1.0
23570.0194426,284802.375,293705.59375,-594078.0,-567629.0,-402584.96875,-639489.8125,-543081.5,-750000.125,0.580322265625,0.69970703125,0.4130859375,-2.044677495956421,-0.3051757514476776,0.7629393935203552,60.0,190403.0,1.0
23570.019449,286844.34375,283662.0625,-593292.5625,-568254.0,-416736.5,-641488.5,-546099.4375,-750000.125,0.57861328125,0.700439453125,0.41162109375,-2.044677495956421,-0.3356933295726776,0.7934569716453552,60.0,190404.0,1.0
23570.0219468,287949.125,283258.84375,-593520.8125,-568383.625,-419677.625,-641783.5,-546876.5625,-750000.125,0.57958984375,0.69970703125,0.412353515625,-1.9836424589157104,-0.2746581733226776,0.6713866591453552,60.0,190405.0,1.0
23570.0219524,285894.75,293493.53125,-594380.0,-567760.25,-405520.3125,-639766.3125,-543883.0625,-750000.125,0.579833984375,0.701171875,0.412109375,-1.9531248807907104,-0.2746581733226776,0.6713866591453552,60.0,190406.0,1.0
23570.0376403,284519.9375,294871.03125,-594233.25,-567570.8125,-401245.75,-639269.6875,-542792.125,-750000.125,0.580322265625,0.700439453125,0.40966796875,-1.9836424589157104,-0.3356933295726776,0.6713866591453552,60.0,190407.0,1.0
23570.0450265,286271.15625,285052.875,-593403.25,-568152.5,-414446.96875,-641162.5625,-545567.5625,-750000.125,0.580810546875,0.701416015625,0.411376953125,-1.9531248807907104,-0.2746581733226776,0.7324218153953552,60.0,190408.0,1.0
23570.0450322,287840.6875,282156.53125,-593418.8125,-568432.0,-420807.28125,-641944.375,-547062.1875,-750000.125,0.580810546875,0.700439453125,0.414794921875,-1.9226073026657104,-0.3051757514476776,0.7934569716453552,60.0,190409.0,1.0
23570.0450346,286254.25,291648.53125,-594274.875,-567880.9375,-408261.96875,-640131.375,-544453.5625,-750000.125,0.582275390625,0.701171875,0.416259765625,-2.014159917831421,-0.3051757514476776,0.7934569716453552,60.0,190410.0,1.0
23570.0481764,284493.09375,295577.59375,-594338.1875,-567547.625,-400726.75,-639165.0,-542672.75,-750000.125,0.58056640625,0.699951171875,0.415771484375,-2.014159917831421,-0.2136230319738388,0.8239745497703552,60.0,190411.0,1.0
23570.0481808,285916.1875,286709.6875,-593518.5,-568055.8125,-412133.03125,-640842.5,-545050.6875,-750000.125,0.58056640625,0.699462890625,0.416015625,-2.014159917831421,-0.1831054538488388,0.7629393935203552,60.0,190412.0,1.0
23570.056368,287825.46875,281618.5,-593332.0625,-568456.625,-421341.9375,-642035.625,-547134.25,-750000.125,0.5810546875,0.697509765625,0.413818359375,-2.044677495956421,-0.2441406100988388,0.7019042372703552,60.0,190413.0,1.0
23570.0606912,286740.09375,289815.5,-594144.4375,-568012.0625,-411105.09375,-640529.3125,-545058.6875,-750000.125,0.58056640625,0.70166015625,0.41455078125,-1.9531248807907104,-0.1525878757238388,0.7019042372703552,60.0,190414.0,1.0
23570.060697,284598.15625,296047.25,-594429.1875,-567548.4375,-400603.90625,-639129.125,-542668.125,-750000.125,0.581298828125,0.702392578125,0.4111328125,-2.014159917831421,-0.2746581733226776,0.7629393935203552,60.0,190415.0,1.0
23570.0688569,285519.3125,288619.6875,-593668.0,-567946.4375,-409541.90625,-640480.0,-544484.6875,-750000.125,0.580078125,0.700927734375,0.413818359375,-2.075195074081421,-0.3356933295726776,0.7324218153953552,60.0,190416.0,1.0
23570.0732113,287672.59375,281548.5625,-593282.0,-568453.6875,-421156.875,-642032.625,-547058.6875,-750000.125,0.580810546875,0.700927734375,0.412109375,-2.075195074081421,-0.3662109076976776,0.7019042372703552,60.0,190417.0,1.0
23570.0732175,287163.0625,287911.75,-593992.125,-568141.6875,-413936.90625,-640930.5625,-545652.25,-750000.125,0.580078125,0.7001953125,0.41259765625,-1.9531248807907104,-0.2441406100988388,0.6713866591453552,60.0,190418.0,1.0
23570.0813275,284801.28125,296086.34375,-594484.125,-567573.25,-401115.5625,-639179.5625,-542801.9375,-750000.125,0.5791015625,0.700439453125,0.4111328125,-1.9531248807907104,-0.3051757514476776,0.6408690810203552,60.0,190419.0,1.0
23570.0907005,285159.375,290564.03125,-593833.0625,-567841.25,-407036.625,-640124.5625,-543947.8125,-750000.125,0.580078125,0.701171875,0.415283203125,-1.9531248807907104,-0.2746581733226776,0.7019042372703552,60.0,190420.0,1.0
23570.0907065,287425.5625,281955.125,-593269.9375,-568423.1875,-420301.40625,-641938.0,-546848.0,-750000.125,0.581298828125,0.70068359375,0.41357421875,-2.044677495956421,-0.3662109076976776,0.7019042372703552,60.0,190421.0,1.0
23570.0925951,287498.6875,286121.9375,-593837.875,-568259.25,-416495.71875,-641298.9375,-546185.9375,-750000.125,0.58154296875,0.701904296875,0.416748046875,-1.9531248807907104,-0.3051757514476776,0.6408690810203552,60.0,190422.0,1.0
23570.0951003,285083.09375,295668.71875,-594506.0,-567627.3125,-402253.28125,-639321.0,-543078.75,-750000.125,0.580078125,0.699951171875,0.415771484375,-1.9836424589157104,-0.2441406100988388,0.6713866591453552,60.0,190423.0,1.0
23570.1019517,284862.53125,292384.6875,-593998.875,-567742.125,-404785.28125,-639793.875,-543471.1875,-750000.125,0.579833984375,0.70166015625,0.417236328125,-2.044677495956421,-0.2441406100988388,0.7629393935203552,60.0,190424.0,1.0
23570.1019579,287159.40625,282847.5625,-593300.0,-568363.875,-418798.84375,-641754.625,-546514.1875,-750000.125,0.580322265625,0.70068359375,0.415283203125,-2.044677495956421,-0.3051757514476776,0.7629393935203552,60.0,190425.0,1.0
23570.1075949,287861.0625,284527.71875,-593692.375,-568359.375,-418565.40625,-641615.4375,-546627.0625,-750000.125,0.58056640625,0.7021484375,0.4150390625,-2.075195074081421,-0.3662109076976776,0.6713866591453552,60.0,190426.0,1.0
23570.1169456,285576.8125,294741.125,-594483.75,-567713.125,-403905.78125,-639555.125,-543481.6875,-750000.125,0.57958984375,0.7021484375,0.41455078125,-2.166747808456421,-0.3051757514476776,0.6713866591453552,60.0,190427.0,1.0
23570.1169519,284759.53125,293934.40625,-594149.1875,-567669.6875,-402870.71875,-639529.125,-543097.0,-750000.125,0.579345703125,0.700927734375,0.412353515625,-2.136230230331421,-0.3051757514476776,0.7324218153953552,60.0,190428.0,1.0
23570.119431,286849.0625,284084.53125,-593359.4375,-568286.5,-416740.59375,-641506.25,-546081.5625,-750000.125,0.579833984375,0.699462890625,0.4140625,-2.166747808456421,-0.2441406100988388,0.7934569716453552,60.0,190429.0,1.0
23570.1194357,288067.34375,283337.0625,-593560.1875,-568431.0,-420002.1875,-641853.5,-546935.9375,-750000.125,0.580322265625,0.699951171875,0.41552734375,-2.105712652206421,-0.3356933295726776,0.6408690810203552,60.0,190430.0,1.0
23570.127618,286086.96875,293468.0625,-594412.5625,-567813.75,-406015.875,-639859.3125,-543979.875,-750000.125,0.580078125,0.700439453125,0.414794921875,-2.166747808456421,-0.2136230319738388,0.7934569716453552,60.0,190431.0,1.0
23570.1301055,284728.25,295183.15625,-594281.6875,-567615.3125,-401455.59375,-639329.8125,-542835.1875,-750000.125,0.579833984375,0.702880859375,0.415283203125,-2.014159917831421,-0.3051757514476776,0.7324218153953552,60.0,190432.0,1.0
23570.1338449,286517.90625,285575.1875,-593451.8125,-568197.4375,-414414.40625,-641213.9375,-545593.25,-750000.125,0.5791015625,0.701416015625,0.415771484375,-1.9836424589157104,-0.3356933295726776,0.7019042372703552,60.0,190433.0,1.0
23570.1431834,288181.78125,282474.75,-593451.8125,-568483.9375,-420933.0,-642025.8125,-547134.625,-750000.125,0.57958984375,0.700439453125,0.41552734375,-2.014159917831421,-0.3356933295726776,0.7934569716453552,60.0,190434.0,1.0
23570.1431897,286626.90625,291866.21875,-594310.1875,-567937.8125,-408504.4375,-640227.3125,-544557.1875,-750000.125,0.580322265625,0.69775390625,0.415283203125,-1.9531248807907104,-0.3356933295726776,0.7324218153953552,60.0,190435.0,1.0
23570.1451052,284796.71875,296066.125,-594398.6875,-567590.9375,-400605.96875,-639212.1875,-542706.0,-750000.125,0.5791015625,0.700927734375,0.41455078125,-1.9836424589157104,-0.3356933295726776,0.7324218153953552,60.0,190436.0,1.0
23570.1563479,286162.25,287403.9375,-593583.125,-568091.25,-411718.78125,-640864.0,-545034.4375,-750000.125,0.580078125,0.7001953125,0.4150390625,-2.075195074081421,-0.2746581733226776,0.7629393935203552,60.0,190437.0,1.0
23570.1594403,288162.09375,282078.40625,-593375.25,-568504.25,-421139.25,-642097.9375,-547177.625,-750000.125,0.58154296875,0.70068359375,0.4140625,-2.014159917831421,-0.2746581733226776,0.7324218153953552,60.0,190438.0,1.0
23570.1594453,287128.90625,290068.25,-594179.5,-568067.375,-411151.875,-640622.5625,-545158.0625,-750000.125,0.580078125,0.701171875,0.415771484375,-2.014159917831421,-0.3662109076976776,0.6713866591453552,60.0,190439.0,1.0
23570.1613462,284962.65625,296514.9375,-594484.8125,-567592.0625,-400404.4375,-639181.3125,-542718.375,-750000.125,0.581298828125,0.7021484375,0.416015625,-2.044677495956421,-0.3662109076976776,0.7324218153953552,60.0,190440.0,1.0
23570.1676125,285826.875,289340.5,-593737.8125,-567980.75,-408991.96875,-640499.125,-544474.5,-750000.125,0.580322265625,0.7021484375,0.416015625,-2.014159917831421,-0.3662109076976776,0.7629393935203552,60.0,190441.0,1.0
23570.171937,288061.15625,282092.8125,-593331.625,-568499.375,-420738.53125,-642088.375,-547094.3125,-750000.125,0.580078125,0.7001953125,0.4130859375,-1.9531248807907104,-0.3967284858226776,0.7629393935203552,60.0,190442.0,1.0
23570.1719416,287636.46875,288175.78125,-594026.6875,-568200.125,-413842.84375,-641029.75,-545759.625,-750000.125,0.580078125,0.701416015625,0.412841796875,-2.014159917831421,-0.3967284858226776,0.7324218153953552,60.0,190443.0,1.0
23570.1800996,285229.28125,296499.3125,-594539.375,-567624.125,-400792.625,-639246.25,-542872.5,-750000.125,0.57861328125,0.701416015625,0.411376953125,-1.9531248807907104,-0.3356933295726776,0.7324218153953552,60.0,190444.0,1.0
23570.1844266,285389.15625,291121.75,-593901.5,-567877.1875,-406361.4375,-640143.0,-543942.125,-750000.125,0.57861328125,0.701416015625,0.413330078125,-1.9836424589157104,-0.3051757514476776,0.7324218153953552,60.0,190445.0,1.0
23570.1844339,287676.625,282372.28125,-593323.125,-568468.4375,-419753.0,-641986.1875,-546873.625,-750000.125,0.5810546875,0.700927734375,0.412109375,-2.014159917831421,-0.3051757514476776,0.7324218153953552,60.0,190446.0,1.0
23570.1924671,287860.1875,286243.59375,-593874.875,-568321.5,-416286.875,-641398.1875,-546289.375,-750000.125,0.580810546875,0.70068359375,0.4140625,-1.9836424589157104,-0.3051757514476776,0.7324218153953552,60.0,190447.0,1.0
23570.1994543,285431.625,295891.96875,-594556.3125,-567683.4375,-401901.0,-639396.625,-543158.3125,-750000.125,0.579833984375,0.6982421875,0.4150390625,-1.9836424589157104,-0.3051757514476776,0.6713866591453552,60.0,190448.0,1.0
23570.19946,284995.5625,292776.21875,-594066.125,-567781.625,-404025.15625,-639816.8125,-543467.0625,-750000.125,0.5791015625,0.698974609375,0.413330078125,-1.8920897245407104,-0.2441406100988388,0.6408690810203552,60.0,190449.0,1.0
23570.2013428,287208.125,283133.0625,-593354.375,-568404.4375,-418111.5625,-641792.4375,-546514.125,-750000.125,0.57958984375,0.70068359375,0.411376953125,-1.9836424589157104,-0.2746581733226776,0.7629393935203552,60.0,190450.0,1.0
23570.2051004,287963.34375,284573.21875,-593728.6875,-568414.0,-418254.96875,-641703.0625,-546705.125,-750000.125,0.580078125,0.69921875,0.413330078125,-2.044677495956421,-0.2746581733226776,0.7019042372703552,60.0,190451.0,1.0
23570.2113606,285694.03125,294784.46875,-594528.4375,-567768.9375,-403639.875,-639643.125,-543573.4375,-750000.125,0.579833984375,0.699951171875,0.415283203125,-2.014159917831421,-0.2136230319738388,0.6713866591453552,60.0,190452.0,1.0
23570.2156841,284730.75,294089.78125,-594217.0625,-567711.375,-402261.40625,-639564.875,-543113.375,-750000.125,0.578369140625,0.699951171875,0.41748046875,-2.075195074081421,-0.3051757514476776,0.7324218153953552,60.0,190453.0,1.0
23570.21569,286737.65625,284060.1875,-593418.75,-568332.1875,-416275.40625,-641554.1875,-546099.25,-750000.125,0.578369140625,0.69921875,0.413818359375,-2.014159917831421,-0.4577636420726776,0.7324218153953552,60.0,190454.0,1.0
23570.2188402,287968.90625,283129.03125,-593600.375,-568490.1875,-419919.75,-641948.8125,-547024.9375,-750000.125,0.580322265625,0.700439453125,0.413818359375,-2.075195074081421,-0.3051757514476776,0.7019042372703552,60.0,190455.0,1.0
23570.2331867,286016.34375,293260.625,-594458.625,-567876.9375,-406015.78125,-639961.75,-544090.6875,-750000.125,0.58203125,0.7021484375,0.411865234375,-2.044677495956421,-0.2746581733226776,0.7934569716453552,60.0,190456.0,1.0
23570.2331929,284602.28125,295235.0,-594351.4375,-567660.0625,-401083.375,-639371.4375,-542861.25,-750000.125,0.579833984375,0.701904296875,0.412841796875,-2.044677495956421,-0.2746581733226776,0.6713866591453552,60.0,190457.0,1.0
23570.2351108,286365.03125,285681.9375,-593519.875,-568232.9375,-413893.34375,-641237.9375,-545577.75,-750000.125,0.5791015625,0.700927734375,0.4130859375,-1.8920897245407104,-0.3662109076976776,0.5798339247703552,60.0,190458.0,1.0
23570.2376106,288073.21875,282315.40625,-593495.6875,-568533.5625,-420762.3125,-642099.75,-547191.125,-750000.125,0.580078125,0.701171875,0.41259765625,-1.9226073026657104,-0.3051757514476776,0.6408690810203552,60.0,190459.0,1.0
23570.241344,286577.71875,291576.375,-594350.0625,-567999.25,-408583.90625,-640333.8125,-544670.625,-750000.125,0.578857421875,0.701416015625,0.4130859375,-1.9226073026657104,-0.3662109076976776,0.6713866591453552,60.0,190460.0,1.0
23570.2556807,284712.59375,296023.65625,-594459.0625,-567636.8125,-400375.03125,-639266.25,-542752.625,-750000.125,0.580078125,0.69921875,0.414794921875,-2.105712652206421,-0.2136230319738388,0.7324218153953552,60.0,190461.0,1.0
23570.2556864,286020.28125,287478.9375,-593648.75,-568126.75,-411258.34375,-640891.75,-545029.625,-750000.125,0.58056640625,0.697509765625,0.41552734375,-2.075195074081421,-0.2746581733226776,0.7629393935203552,60.0,190462.0,1.0
23570.2575835,288044.25,281943.3125,-593423.125,-568553.375,-420930.65625,-642167.375,-547227.875,-750000.125,0.57861328125,0.69921875,0.415283203125,-2.075195074081421,-0.3662109076976776,0.7324218153953552,60.0,190463.0,1.0
23570.2601044,287080.71875,289750.5,-594219.125,-568132.8125,-411267.75,-640735.6875,-545281.1875,-750000.125,0.579345703125,0.699462890625,0.415283203125,-2.136230230331421,-0.3662109076976776,0.8239745497703552,60.0,190464.0,1.0
