Time,FZ,C3,CZ,C4,PZ,PO7,OZ,PO8,AccX,AccY,AccZ,Gyro1,Gyro2,Gyro3,Battery,Counter,Validation
2057.6980145,331704.28125,331864.3125,332522.1875,332055.375,331968.40625,332141.9375,332246.71875,306698.5,0.399169921875,0.72412109375,0.55078125,-1.9531248807907104,-0.2136230319738388,0.6713866591453552,66.66667175292969,35745.0,1.0
2057.6980199,331648.59375,331808.4375,332466.375,331999.6875,331912.15625,332086.0625,332194.25,307626.8125,0.399169921875,0.72314453125,0.551513671875,-1.9226073026657104,-0.2136230319738388,0.7324218153953552,66.66667175292969,35746.0,1.0
2057.6999363,331667.625,331827.65625,332485.625,332019.0,331931.125,332105.0,332214.09375,309195.53125,0.3984375,0.72216796875,0.552490234375,-1.9531248807907104,-0.2136230319738388,0.7019042372703552,66.66667175292969,35747.0,1.0
2057.7022929,331719.40625,331879.4375,332537.03125,332070.75,331983.40625,332156.875,332264.96875,308520.15625,0.399169921875,0.721923828125,0.552490234375,-1.9531248807907104,-0.1525878757238388,0.7324218153953552,66.66667175292969,35748.0,1.0
2057.7099592,331693.75,331854.03125,332511.53125,332044.9375,331957.75,332131.125,332236.15625,306772.4375,0.400390625,0.72412109375,0.551513671875,-1.8615721464157104,-0.1220703050494194,0.6713866591453552,66.66667175292969,35749.0,1.0
2057.7124415,331625.78125,331786.0,332443.84375,331977.34375,331889.53125,332063.15625,332171.0,307334.4375,0.4013671875,0.722412109375,0.552978515625,-1.8615721464157104,-0.1525878757238388,0.7324218153953552,66.66667175292969,35750.0,1.0
2057.7161809,331634.625,331794.59375,332452.4375,331985.90625,331898.46875,332071.9375,332180.71875,309022.09375,0.399169921875,0.7236328125,0.552001953125,-1.8615721464157104,-0.1525878757238388,0.6713866591453552,66.66667175292969,35751.0,1.0
2057.72306,331690.15625,331849.9375,332507.53125,332041.25,331953.71875,332127.09375,332236.0,308787.5625,0.396728515625,0.723876953125,0.55078125,-1.9531248807907104,-0.2746581733226776,0.6713866591453552,66.66667175292969,35752.0,1.0
2057.7230667,331697.59375,331857.625,332514.9375,332048.5,331961.59375,332134.78125,332239.5625,307059.875,0.398681640625,0.721435546875,0.549072265625,-1.9531248807907104,-0.3356933295726776,0.7629393935203552,66.66667175292969,35753.0,1.0
2057.7480192,331652.4375,331812.65625,332470.15625,332003.53125,331916.1875,332089.625,332196.8125,307106.1875,0.3974609375,0.722412109375,0.5498046875,-1.9226073026657104,-0.2746581733226776,0.6103515028953552,66.66667175292969,35754.0,1.0
2057.7480266,331653.0625,331813.28125,332470.875,332004.25,331916.96875,332090.4375,332199.5,308737.25,0.398193359375,0.72216796875,0.55078125,-1.9226073026657104,-0.2746581733226776,0.7019042372703552,66.66667175292969,35755.0,1.0
2057.7499362,331704.8125,331865.21875,332522.8125,332055.84375,331968.5625,332142.125,332251.0,308943.3125,0.39990234375,0.7216796875,0.552490234375,-1.9531248807907104,-0.2746581733226776,0.6103515028953552,66.66667175292969,35756.0,1.0
2057.7524353,331715.1875,331875.40625,332533.0,332065.9375,331978.9375,332152.40625,332258.34375,307137.5625,0.399169921875,0.723388671875,0.552734375,-1.9531248807907104,-0.2441406100988388,0.7019042372703552,66.66667175292969,35757.0,1.0
2057.7549521,331637.6875,331797.8125,332455.65625,331988.78125,331901.59375,332075.3125,332181.625,306817.5,0.398193359375,0.72314453125,0.554443359375,-1.9531248807907104,-0.2441406100988388,0.7324218153953552,66.66667175292969,35758.0,1.0
2057.7574477,331619.15625,331779.28125,332436.96875,331970.1875,331883.1875,332056.71875,332165.53125,308442.375,0.3994140625,0.72265625,0.551513671875,-2.075195074081421,-0.2136230319738388,0.6408690810203552,66.66667175292969,35759.0,1.0
2057.7599284,331666.09375,331825.96875,332483.90625,332017.3125,331929.9375,332103.40625,332212.28125,309088.96875,0.401611328125,0.722900390625,0.55029296875,-1.8920897245407104,-0.3051757514476776,0.6713866591453552,66.66667175292969,35760.0,1.0
2057.7624329,331690.875,331851.28125,332509.21875,332042.25,331954.96875,332128.625,332234.90625,307443.0,0.3994140625,0.720703125,0.55419921875,-1.9836424589157104,-0.2136230319738388,0.6408690810203552,66.66667175292969,35761.0,1.0
2057.7649433,331618.375,331778.65625,332436.25,331969.71875,331882.28125,332055.84375,332161.25,306625.8125,0.3984375,0.721923828125,0.553466796875,-1.9531248807907104,-0.2136230319738388,0.5798339247703552,66.66667175292969,35762.0,1.0
2057.7680351,331587.4375,331747.375,332405.0625,331939.0625,331851.28125,332024.375,332132.90625,308084.9375,0.398681640625,0.721435546875,0.55078125,-1.9836424589157104,-0.1220703050494194,0.5187987685203552,66.66667175292969,35763.0,1.0
2057.7680421,331624.71875,331784.46875,332442.53125,331976.0,331888.46875,332062.09375,332170.90625,309153.4375,0.399658203125,0.72265625,0.554443359375,-1.9226073026657104,-0.2746581733226776,0.4577636420726776,66.66667175292969,35764.0,1.0
2057.7699305,331659.9375,331820.15625,332478.0,332011.03125,331923.78125,332097.40625,332204.53125,307798.46875,0.39892578125,0.72314453125,0.549560546875,-1.9226073026657104,-0.2746581733226776,0.5798339247703552,66.66667175292969,35765.0,1.0
2057.7761769,331603.25,331763.46875,332421.25,331954.34375,331867.1875,332040.46875,332145.5,306567.96875,0.398193359375,0.723388671875,0.55126953125,-1.9531248807907104,-0.2441406100988388,0.6713866591453552,66.66667175292969,35766.0,1.0
2057.7805343,331556.5,331716.4375,332374.65625,331908.03125,331820.5,331993.6875,332102.3125,307774.5,0.39794921875,0.721923828125,0.548828125,-1.8310545682907104,-0.2441406100988388,0.6713866591453552,66.66667175292969,35767.0,1.0
2057.7805416,331584.46875,331744.53125,332401.9375,331935.84375,331848.21875,332021.6875,332130.40625,309146.46875,0.39794921875,0.7216796875,0.552978515625,-1.9226073026657104,-0.2441406100988388,0.6103515028953552,66.66667175292969,35768.0,1.0
2057.7886799,331631.25,331791.625,332448.96875,331982.4375,331894.8125,332068.53125,332176.09375,308132.125,0.3974609375,0.720703125,0.55224609375,-1.9226073026657104,-0.2441406100988388,0.7324218153953552,66.66667175292969,35769.0,1.0
2057.795533,331589.40625,331749.625,332407.1875,331940.6875,331853.15625,332027.125,332131.28125,306583.59375,0.396728515625,0.721923828125,0.548583984375,-1.8615721464157104,-0.3051757514476776,0.7324218153953552,66.66667175292969,35770.0,1.0
2057.7955397,331532.8125,331693.03125,332350.6875,331884.15625,331796.90625,331970.1875,332078.28125,307465.96875,0.397216796875,0.721923828125,0.552734375,-1.8615721464157104,-0.3051757514476776,0.6713866591453552,66.66667175292969,35771.0,1.0
2057.7980205,331550.78125,331711.34375,332369.125,331902.0625,331815.15625,331988.0625,332097.3125,309055.25,0.3974609375,0.7236328125,0.552490234375,-1.8005369901657104,-0.1831054538488388,0.6713866591453552,66.66667175292969,35772.0,1.0
2057.7980282,331602.71875,331763.21875,332420.96875,331954.0,331866.5625,332040.0,332148.71875,308435.03125,0.39892578125,0.724609375,0.55126953125,-1.9226073026657104,-0.2746581733226776,0.7019042372703552,66.66667175292969,35773.0,1.0
2057.8085381,331580.46875,331740.5,332398.1875,331931.5625,331843.9375,332017.5625,332122.625,306670.59375,0.400146484375,0.724609375,0.551025390625,-1.9531248807907104,-0.2441406100988388,0.7629393935203552,66.66667175292969,35774.0,1.0
2057.8155166,331511.0625,331671.125,332328.6875,331862.53125,331774.75,331947.90625,332056.1875,307180.65625,0.400390625,0.723388671875,0.55126953125,-1.9226073026657104,-0.2441406100988388,0.7019042372703552,66.66667175292969,35775.0,1.0
2057.8155237,331517.25,331677.71875,332335.125,331868.78125,331781.34375,331954.34375,332064.0625,308873.0625,0.398193359375,0.7236328125,0.552734375,-1.9836424589157104,-0.3051757514476776,0.6713866591453552,66.66667175292969,35776.0,1.0
2057.8217602,331570.4375,331730.65625,332388.0625,331922.34375,331834.5625,332007.28125,332116.375,308693.34375,0.3974609375,0.7216796875,0.552001953125,-1.9836424589157104,-0.2441406100988388,0.6408690810203552,66.66667175292969,35777.0,1.0
2057.8217675,331578.3125,331738.71875,332396.125,331929.9375,331842.15625,332015.875,332120.375,306965.09375,0.396728515625,0.72314453125,0.551513671875,-1.9226073026657104,-0.2441406100988388,0.6103515028953552,66.66667175292969,35778.0,1.0
2057.8355097,331534.84375,331694.90625,332352.5625,331886.125,331798.53125,331971.875,332079.34375,306962.875,0.396240234375,0.722900390625,0.55126953125,-1.9226073026657104,-0.2136230319738388,0.6408690810203552,66.66667175292969,35779.0,1.0
2057.835517,331536.03125,331696.3125,332353.65625,331887.46875,331799.6875,331972.875,332081.9375,308580.5,0.400146484375,0.723876953125,0.55322265625,-1.8920897245407104,-0.2136230319738388,0.6713866591453552,66.66667175292969,35780.0,1.0
2057.8380273,331587.59375,331747.90625,332405.25,331938.96875,331851.53125,332024.8125,332133.625,308841.3125,0.399169921875,0.725341796875,0.553466796875,-1.8920897245407104,-0.2136230319738388,0.7934569716453552,66.66667175292969,35781.0,1.0
2057.8380326,331599.0625,331759.1875,332416.78125,331950.25,331862.96875,332036.4375,332141.84375,307042.8125,0.401123046875,0.722412109375,0.550048828125,-1.8615721464157104,-0.2136230319738388,0.7934569716453552,66.66667175292969,35782.0,1.0
2057.8467665,331519.21875,331679.0625,332336.9375,331870.5,331783.15625,331956.3125,332062.34375,306669.0625,0.3994140625,0.722900390625,0.548095703125,-1.9226073026657104,-0.2441406100988388,0.6713866591453552,66.66667175292969,35783.0,1.0
2057.8467735,331499.53125,331659.84375,332317.875,331851.34375,331763.5625,331936.90625,332045.46875,308285.46875,0.398681640625,0.72314453125,0.550048828125,-2.014159917831421,-0.3051757514476776,0.5798339247703552,66.66667175292969,35784.0,1.0
2057.8555138,331544.78125,331705.625,332362.84375,331896.40625,331809.15625,331982.15625,332091.25,308989.90625,0.3984375,0.72216796875,0.5498046875,-1.9531248807907104,-0.2136230319738388,0.6408690810203552,66.66667175292969,35785.0,1.0
2057.8555194,331571.875,331732.34375,332390.03125,331923.15625,331836.15625,332009.25,332115.46875,307381.5625,0.3974609375,0.724853515625,0.551025390625,-2.044677495956421,-0.2746581733226776,0.5798339247703552,66.66667175292969,35786.0,1.0
2057.8617689,331502.21875,331662.34375,332320.03125,331853.3125,331765.875,331939.4375,332044.9375,306514.03125,0.399169921875,0.7216796875,0.548095703125,-2.014159917831421,-0.3356933295726776,0.6713866591453552,66.66667175292969,35787.0,1.0
2057.8617765,331470.125,331630.4375,332288.28125,331821.75,331734.25,331907.15625,332016.3125,307938.5625,0.400390625,0.721435546875,0.551513671875,-2.014159917831421,-0.3051757514476776,0.6103515028953552,66.66667175292969,35788.0,1.0
2057.8730152,331505.625,331665.5625,332323.875,331857.09375,331769.8125,331942.71875,332051.8125,309030.40625,0.40087890625,0.72216796875,0.552001953125,-2.014159917831421,-0.3051757514476776,0.6408690810203552,66.66667175292969,35789.0,1.0
2057.8730225,331543.71875,331703.75,332361.875,331895.0,331807.8125,331980.90625,332088.09375,307703.15625,0.401123046875,0.721923828125,0.55224609375,-1.8920897245407104,-0.2136230319738388,0.6713866591453552,66.66667175292969,35790.0,1.0
2057.8817691,331486.75,331646.78125,332304.75,331838.03125,331750.6875,331923.78125,332029.28125,306442.0625,0.399169921875,0.72021484375,0.55419921875,-2.014159917831421,-0.3051757514476776,0.7019042372703552,66.66667175292969,35791.0,1.0
2057.8817761,331440.90625,331600.84375,332259.15625,331792.34375,331704.90625,331878.09375,331986.71875,307616.4375,0.399658203125,0.722412109375,0.554931640625,-1.9836424589157104,-0.2136230319738388,0.6408690810203552,66.66667175292969,35792.0,1.0
2057.8961179,331466.90625,331627.03125,332284.96875,331818.0,331730.84375,331904.09375,332013.53125,309016.8125,0.39892578125,0.72314453125,0.554443359375,-2.014159917831421,-0.2136230319738388,0.7019042372703552,66.66667175292969,35793.0,1.0
2057.8961248,331514.65625,331674.6875,332332.5625,331865.75,331778.3125,331951.5,332059.59375,308041.84375,0.400634765625,0.721435546875,0.55078125,-1.9836424589157104,-0.2746581733226776,0.7324218153953552,66.66667175292969,35794.0,1.0
2057.8961273,331474.6875,331634.46875,332292.9375,331825.78125,331738.4375,331911.625,332016.5,306450.21875,0.39794921875,0.722900390625,0.54931640625,-1.9836424589157104,-0.3356933295726776,0.7629393935203552,66.66667175292969,35795.0,1.0
2057.8992629,331413.09375,331572.84375,332231.34375,331764.375,331676.9375,331850.03125,331958.1875,307304.6875,0.398681640625,0.72412109375,0.5537109375,-1.9226073026657104,-0.2746581733226776,0.7019042372703552,66.66667175292969,35796.0,1.0
2057.8992705,331429.53125,331589.5,332247.4375,331780.90625,331693.03125,331866.375,331975.625,308915.875,0.40087890625,0.723876953125,0.553955078125,-1.8920897245407104,-0.2136230319738388,0.6713866591453552,66.66667175292969,35797.0,1.0
2057.9011819,331481.125,331640.96875,332299.1875,331832.75,331744.53125,331918.15625,332026.96875,308344.9375,0.40087890625,0.72412109375,0.55126953125,-2.075195074081421,-0.2441406100988388,0.6103515028953552,66.66667175292969,35798.0,1.0
2057.9049247,331460.21875,331620.25,332278.0,331811.3125,331724.03125,331897.59375,332002.46875,306563.125,0.400634765625,0.72265625,0.551513671875,-2.014159917831421,-0.2136230319738388,0.6408690810203552,66.66667175292969,35799.0,1.0
2057.9161794,331390.46875,331550.40625,332208.28125,331741.5625,331654.125,331827.65625,331935.3125,307025.1875,0.398681640625,0.7236328125,0.551513671875,-1.9836424589157104,-0.3051757514476776,0.6103515028953552,66.66667175292969,35800.0,1.0
2057.9192696,331396.375,331556.21875,332214.34375,331747.8125,331660.21875,331833.375,331942.90625,308727.6875,0.3974609375,0.7216796875,0.550048828125,-2.014159917831421,-0.1831054538488388,0.6408690810203552,66.66667175292969,35801.0,1.0
2057.9192752,331449.90625,331609.96875,332268.1875,331801.8125,331713.9375,331886.84375,331996.375,308592.21875,0.398193359375,0.723388671875,0.549072265625,-2.014159917831421,-0.2441406100988388,0.7019042372703552,66.66667175292969,35802.0,1.0
2057.9211885,331447.59375,331607.71875,332265.9375,331799.5,331711.625,331885.15625,331989.9375,306747.125,0.399658203125,0.72314453125,0.550048828125,-1.9531248807907104,-0.2441406100988388,0.6713866591453552,66.66667175292969,35803.0,1.0
2057.9355034,331373.65625,331533.875,332192.09375,331725.28125,331637.6875,331811.3125,331918.0625,306780.3125,0.399658203125,0.722900390625,0.54931640625,-1.8920897245407104,-0.2136230319738388,0.6408690810203552,66.66667175292969,35804.0,1.0
2057.9355096,331367.5,331527.71875,332185.46875,331719.40625,331631.40625,331805.03125,331913.59375,308468.9375,0.399658203125,0.72216796875,0.5517578125,-2.014159917831421,-0.3051757514476776,0.6713866591453552,66.66667175292969,35805.0,1.0
2057.9380034,331416.5625,331576.6875,332234.90625,331768.375,331680.875,331854.125,331962.9375,308780.78125,0.398681640625,0.7236328125,0.553466796875,-2.014159917831421,-0.2441406100988388,0.6713866591453552,66.66667175292969,35806.0,1.0
2057.9380094,331430.625,331590.75,332248.5,331781.875,331694.8125,331867.90625,331973.40625,307012.5,0.398681640625,0.72265625,0.55126953125,-1.9836424589157104,-0.2441406100988388,0.6408690810203552,66.66667175292969,35807.0,1.0
2057.9399221,331358.625,331518.40625,332176.34375,331710.0,331622.375,331795.65625,331902.0625,306573.5,0.398193359375,0.72265625,0.551025390625,-2.075195074081421,-0.2136230319738388,0.6408690810203552,66.66667175292969,35808.0,1.0
2057.942444,331340.5,331500.34375,332158.28125,331692.03125,331604.3125,331777.5,331886.40625,308158.6875,0.399658203125,0.721435546875,0.552734375,-2.014159917831421,-0.2136230319738388,0.5187987685203552,66.66667175292969,35809.0,1.0
2057.9511794,331383.03125,331543.53125,332201.3125,331734.875,331647.15625,331820.4375,331929.6875,308920.25,0.400390625,0.7216796875,0.55224609375,-1.9836424589157104,-0.1220703050494194,0.5493163466453552,66.66667175292969,35810.0,1.0
2057.9555247,331417.03125,331577.40625,332235.1875,331768.84375,331681.03125,331854.21875,331960.625,307400.6875,0.3994140625,0.7216796875,0.55029296875,-2.014159917831421,-0.1831054538488388,0.5798339247703552,66.66667175292969,35811.0,1.0
2057.9555304,331381.09375,331541.21875,332198.875,331732.71875,331645.0,331818.0,331924.125,306529.15625,0.39892578125,0.721923828125,0.552001953125,-2.014159917831421,-0.2746581733226776,0.6408690810203552,66.66667175292969,35812.0,1.0
2057.9611849,331362.03125,331521.96875,332179.9375,331713.75,331626.15625,331799.25,331908.03125,307782.1875,0.399169921875,0.721435546875,0.551025390625,-1.9531248807907104,-0.2136230319738388,0.6408690810203552,66.66667175292969,35813.0,1.0
2057.9649347,331397.15625,331558.0,332215.5,331749.34375,331661.5625,331834.5625,331943.625,308908.625,0.399169921875,0.723388671875,0.551025390625,-1.8310545682907104,-0.2441406100988388,0.7019042372703552,66.66667175292969,35814.0,1.0
2057.9736748,331435.625,331596.46875,332253.875,331787.4375,331700.25,331873.25,331980.5625,307619.125,0.399658203125,0.721923828125,0.553466796875,-1.8310545682907104,-0.2746581733226776,0.6713866591453552,66.66667175292969,35815.0,1.0
2057.9767521,331381.25,331541.5625,332199.5,331732.96875,331646.15625,331819.09375,331923.875,306306.71875,0.400146484375,0.721923828125,0.55322265625,-1.9226073026657104,-0.1831054538488388,0.5187987685203552,66.66667175292969,35816.0,1.0
2057.9767574,331333.59375,331493.65625,332151.9375,331685.59375,331598.25,331771.34375,331879.53125,307450.3125,0.399658203125,0.721435546875,0.552734375,-1.9836424589157104,-0.1831054538488388,0.5187987685203552,66.66667175292969,35817.0,1.0
2057.9849249,331359.09375,331519.21875,332177.59375,331711.15625,331623.375,331796.71875,331905.625,308880.28125,0.39990234375,0.72216796875,0.55419921875,-1.9836424589157104,-0.1831054538488388,0.7324218153953552,66.66667175292969,35818.0,1.0
2057.991759,331405.75,331565.78125,332223.84375,331756.9375,331669.78125,331843.03125,331950.96875,307940.53125,0.399169921875,0.722412109375,0.5517578125,-2.105712652206421,-0.1525878757238388,0.5493163466453552,66.66667175292969,35819.0,1.0
2057.9917664,331365.25,331525.1875,332182.875,331716.71875,331629.09375,331802.1875,331906.875,306311.0,0.399169921875,0.7216796875,0.551513671875,-2.014159917831421,-0.1831054538488388,0.5493163466453552,66.66667175292969,35820.0,1.0
2058.0005061,331302.3125,331462.4375,332120.03125,331654.03125,331566.0625,331739.0625,331847.4375,307139.96875,0.397705078125,0.7216796875,0.54833984375,-1.9836424589157104,-0.2136230319738388,0.6713866591453552,66.66667175292969,35821.0,1.0
2058.0005132,331316.4375,331476.375,332134.25,331667.625,331580.1875,331753.0,331862.53125,308771.9375,0.3984375,0.7236328125,0.54833984375,-1.9836424589157104,-0.2441406100988388,0.6713866591453552,66.66667175292969,35822.0,1.0
2058.0030112,331369.71875,331529.6875,332187.4375,331721.0,331633.5625,331806.21875,331914.75,308247.375,0.396728515625,0.722900390625,0.546875,-2.014159917831421,-0.1831054538488388,0.6408690810203552,66.66667175292969,35823.0,1.0
2058.0030182,331351.5625,331511.53125,332168.84375,331702.5,331615.25,331788.0625,331893.125,306450.84375,0.3974609375,0.72265625,0.55078125,-2.014159917831421,-0.3051757514476776,0.7019042372703552,66.66667175292969,35824.0,1.0
2058.0111761,331282.0,331441.59375,332099.03125,331632.9375,331545.5,331718.3125,331826.6875,306870.5,0.399169921875,0.72265625,0.550537109375,-1.9531248807907104,-0.2746581733226776,0.7019042372703552,66.66667175292969,35825.0,1.0
2058.0160407,331286.3125,331446.53125,332104.28125,331637.84375,331550.6875,331723.5,331832.84375,308574.4375,0.3984375,0.72265625,0.550537109375,-1.8615721464157104,-0.0610351525247097,0.6408690810203552,66.66667175292969,35826.0,1.0
2058.0224246,331339.3125,331499.53125,332156.9375,331691.3125,331603.875,331776.625,331885.5,308488.875,0.397216796875,0.724365234375,0.55078125,-1.9531248807907104,-0.1220703050494194,0.6408690810203552,66.66667175292969,35827.0,1.0
2058.0249278,331336.90625,331496.9375,332154.1875,331688.46875,331600.9375,331773.75,331879.25,306637.25,0.396484375,0.72314453125,0.55126953125,-1.9226073026657104,-0.1525878757238388,0.6713866591453552,66.66667175292969,35828.0,1.0
2058.0317558,331258.59375,331418.53125,332075.6875,331609.59375,331522.15625,331694.625,331802.1875,306628.3125,0.3984375,0.722900390625,0.55224609375,-1.9226073026657104,-0.1831054538488388,0.7019042372703552,66.66667175292969,35829.0,1.0
2058.0317629,331248.9375,331408.96875,332066.28125,331600.46875,331512.875,331685.6875,331794.9375,308319.1875,0.399169921875,0.72314453125,0.55078125,-1.9226073026657104,-0.1831054538488388,0.6713866591453552,66.66667175292969,35830.0,1.0
2058.0336858,331301.0625,331461.375,332118.6875,331652.6875,331565.25,331738.15625,331847.25,308692.90625,0.3994140625,0.72119140625,0.5537109375,-1.9226073026657104,-0.2441406100988388,0.7019042372703552,66.66667175292969,35831.0,1.0
2058.0374229,331323.84375,331483.90625,332142.125,331675.59375,331588.3125,331761.3125,331866.375,307026.78125,0.399658203125,0.720458984375,0.55419921875,-1.8615721464157104,-0.2441406100988388,0.7019042372703552,66.66667175292969,35832.0,1.0
2058.0467569,331281.75,331441.875,332099.71875,331633.21875,331546.125,331718.9375,331825.4375,306503.59375,0.400146484375,0.72265625,0.55322265625,-1.9531248807907104,-0.2136230319738388,0.7019042372703552,66.66667175292969,35833.0,1.0
2058.0467641,331269.9375,331429.71875,332087.40625,331621.125,331533.875,331706.4375,331815.59375,307948.3125,0.400390625,0.72265625,0.548095703125,-1.9531248807907104,-0.2746581733226776,0.7019042372703552,66.66667175292969,35834.0,1.0
2058.0486723,331316.34375,331475.84375,332133.875,331667.8125,331580.1875,331753.0,331862.1875,308739.28125,0.3994140625,0.721923828125,0.551025390625,-1.8920897245407104,-0.1831054538488388,0.5493163466453552,66.66667175292969,35835.0,1.0
2058.0549224,331343.15625,331502.75,332160.34375,331694.375,331607.1875,331779.9375,331886.59375,307185.3125,0.3984375,0.72314453125,0.55078125,-1.9531248807907104,-0.2441406100988388,0.5493163466453552,66.66667175292969,35836.0,1.0
2058.0642581,331271.46875,331430.875,332088.5625,331622.21875,331535.40625,331708.125,331813.53125,306232.78125,0.39794921875,0.72314453125,0.549560546875,-1.9226073026657104,-0.2746581733226776,0.7324218153953552,66.66667175292969,35837.0,1.0
2058.0642652,331233.90625,331394.03125,332051.8125,331585.375,331497.9375,331671.125,331779.75,307624.03125,0.398193359375,0.7236328125,0.550537109375,-1.9226073026657104,-0.2441406100988388,0.7019042372703552,66.66667175292969,35838.0,1.0
2058.0667522,331270.5625,331430.25,332088.1875,331621.75,331534.3125,331707.3125,331816.59375,308792.3125,0.397705078125,0.72412109375,0.552001953125,-1.9226073026657104,-0.2441406100988388,0.7324218153953552,66.66667175292969,35839.0,1.0
2058.0667572,331312.15625,331472.0,332129.78125,331663.15625,331575.71875,331748.8125,331856.46875,307538.84375,0.400146484375,0.724609375,0.548828125,-2.014159917831421,-0.1831054538488388,0.7019042372703552,66.66667175292969,35840.0,1.0
2058.0749273,331258.3125,331418.09375,332075.78125,331609.4375,331521.90625,331694.71875,331799.875,306186.09375,0.399169921875,0.723388671875,0.550537109375,-2.014159917831421,-0.2441406100988388,0.6713866591453552,66.66667175292969,35841.0,1.0
2058.07801,331207.28125,331367.03125,332024.71875,331558.90625,331470.84375,331643.65625,331752.125,307297.25,0.398681640625,0.722412109375,0.550537109375,-1.9531248807907104,-0.1831054538488388,0.5493163466453552,66.66667175292969,35842.0,1.0
2058.0780156,331231.6875,331391.71875,332049.3125,331583.3125,331495.4375,331668.25,331777.34375,308756.5625,0.39794921875,0.721435546875,0.55322265625,-1.9531248807907104,-0.1220703050494194,0.6408690810203552,66.66667175292969,35843.0,1.0
2058.0861766,331280.125,331439.8125,332097.59375,331631.59375,331543.96875,331716.625,331824.53125,307864.375,0.39892578125,0.7197265625,0.551513671875,-1.9226073026657104,-0.1831054538488388,0.7019042372703552,66.66667175292969,35844.0,1.0
2058.0905031,331243.84375,331403.59375,332060.9375,331594.75,331507.78125,331680.78125,331785.5625,306217.9375,0.399169921875,0.720458984375,0.549560546875,-1.8920897245407104,-0.2136230319738388,0.7019042372703552,66.66667175292969,35845.0,1.0
2058.0905082,331180.625,331340.3125,331998.15625,331531.90625,331444.5625,331617.28125,331725.65625,306992.8125,0.400146484375,0.720703125,0.548095703125,-1.8920897245407104,-0.0915527269244194,0.6408690810203552,66.66667175292969,35846.0,1.0
2058.0936748,331194.125,331353.8125,332012.28125,331546.21875,331458.5,331631.34375,331740.59375,308637.0,0.4013671875,0.721923828125,0.547607421875,-1.8920897245407104,-0.1525878757238388,0.6713866591453552,66.66667175292969,35847.0,1.0
2058.1049245,331247.3125,331407.46875,332065.65625,331599.15625,331511.78125,331684.78125,331793.4375,308165.125,0.399169921875,0.721923828125,0.548583984375,-1.9531248807907104,-0.2746581733226776,0.7324218153953552,66.66667175292969,35848.0,1.0
2058.1080227,331232.40625,331392.15625,332050.1875,331583.59375,331496.3125,331669.3125,331774.125,306341.75,0.399658203125,0.721435546875,0.55029296875,-1.9531248807907104,-0.2441406100988388,0.7019042372703552,66.66667175292969,35849.0,1.0
2058.10803,331161.21875,331320.8125,331978.3125,331512.25,331424.8125,331597.34375,331705.53125,306701.1875,0.398681640625,0.72216796875,0.548828125,-1.9836424589157104,-0.2136230319738388,0.6713866591453552,66.66667175292969,35850.0,1.0
2058.1160323,331165.15625,331324.46875,331982.4375,331515.71875,331428.71875,331601.03125,331710.8125,308414.84375,0.398193359375,0.7216796875,0.55078125,-1.9226073026657104,-0.2441406100988388,0.7324218153953552,66.66667175292969,35851.0,1.0
2058.1236836,331217.5625,331377.21875,332035.09375,331568.75,331481.21875,331654.125,331763.375,308383.0,0.3994140625,0.72216796875,0.55029296875,-1.9531248807907104,-0.2136230319738388,0.7324218153953552,66.66667175292969,35852.0,1.0
2058.1261848,331217.03125,331376.96875,332034.46875,331568.21875,331480.78125,331653.84375,331758.71875,306538.71875,0.398193359375,0.720947265625,0.550537109375,-1.9836424589157104,-0.1525878757238388,0.7324218153953552,66.66667175292969,35853.0,1.0
2058.1286884,331140.3125,331300.0625,331957.9375,331491.75,331404.3125,331577.5,331683.90625,306475.15625,0.39990234375,0.718994140625,0.551025390625,-1.9531248807907104,-0.1525878757238388,0.6103515028953552,66.66667175292969,35854.0,1.0
2058.1311736,331129.3125,331289.0,331947.03125,331481.03125,331393.15625,331566.34375,331675.21875,308157.09375,0.39990234375,0.721435546875,0.55078125,-1.8920897245407104,-0.1831054538488388,0.6408690810203552,66.66667175292969,35855.0,1.0
2058.1380126,331179.28125,331339.15625,331997.0,331530.84375,331443.21875,331616.40625,331725.21875,308568.15625,0.3984375,0.72119140625,0.552978515625,-1.8920897245407104,-0.2441406100988388,0.6408690810203552,66.66667175292969,35856.0,1.0
2058.1380183,331196.90625,331356.65625,332014.25,331548.1875,331460.90625,331634.0,331739.59375,306834.75,0.397705078125,0.722412109375,0.550048828125,-1.9226073026657104,-0.2441406100988388,0.6408690810203552,66.66667175292969,35857.0,1.0
2058.1399296,331125.8125,331285.78125,331943.53125,331477.09375,331389.65625,331562.75,331668.625,306294.46875,0.398681640625,0.722412109375,0.550048828125,-1.8615721464157104,-0.2441406100988388,0.6713866591453552,66.66667175292969,35858.0,1.0
2058.1542584,331103.03125,331263.0625,331920.8125,331454.125,331366.9375,331539.96875,331648.59375,307838.25,0.3974609375,0.719970703125,0.5517578125,-1.9531248807907104,-0.1831054538488388,0.6408690810203552,66.66667175292969,35859.0,1.0
2058.1542646,331145.21875,331305.25,331963.03125,331496.5,331409.25,331582.25,331691.21875,308676.625,0.397216796875,0.721923828125,0.552490234375,-1.8920897245407104,-0.1525878757238388,0.6103515028953552,66.66667175292969,35860.0,1.0
2058.1567587,331176.4375,331336.375,331994.3125,331527.53125,331440.4375,331613.4375,331719.9375,307156.34375,0.397216796875,0.721435546875,0.552734375,-1.8920897245407104,-0.3051757514476776,0.6713866591453552,66.66667175292969,35861.0,1.0
2058.1567644,331109.0,331269.125,331926.90625,331460.21875,331373.21875,331546.125,331651.34375,306160.09375,0.39794921875,0.72119140625,0.552734375,-2.014159917831421,-0.2746581733226776,0.5798339247703552,66.66667175292969,35862.0,1.0
2058.1649224,331071.1875,331230.96875,331889.28125,331422.46875,331335.21875,331508.125,331616.65625,307512.8125,0.39794921875,0.72265625,0.5517578125,-1.9836424589157104,-0.1831054538488388,0.6103515028953552,66.66667175292969,35863.0,1.0
2058.1767563,331108.125,331267.96875,331926.375,331459.5,331371.96875,331545.0625,331654.21875,308715.6875,0.400146484375,0.72314453125,0.55126953125,-1.9226073026657104,-0.1525878757238388,0.6103515028953552,66.66667175292969,35864.0,1.0
2058.1767637,331152.5625,331312.40625,331970.625,331504.1875,331416.3125,331589.5625,331696.9375,307536.59375,0.4013671875,0.72314453125,0.552978515625,-1.9226073026657104,-0.2441406100988388,0.6103515028953552,66.66667175292969,35865.0,1.0
2058.1836,331129.3125,331289.34375,331947.28125,331480.5,331392.875,331566.5,331671.84375,306236.875,0.399658203125,0.72265625,0.5537109375,-1.9836424589157104,-0.2746581733226776,0.5187987685203552,66.66667175292969,35866.0,1.0
2058.1836053,331096.75,331256.53125,331914.84375,331448.03125,331360.6875,331533.4375,331642.6875,307152.5,0.398681640625,0.7236328125,0.55224609375,-2.014159917831421,-0.2441406100988388,0.6713866591453552,66.66667175292969,35867.0,1.0
2058.1836076,331121.4375,331280.9375,331939.34375,331472.4375,331385.46875,331558.09375,331667.53125,308618.78125,0.400146484375,0.72412109375,0.551025390625,-1.8920897245407104,-0.2441406100988388,0.6408690810203552,66.66667175292969,35868.0,1.0
2058.1867538,331170.15625,331329.5,331987.71875,331520.90625,331433.90625,331606.75,331715.09375,307769.5,0.3984375,0.72216796875,0.55126953125,-1.9531248807907104,-0.2746581733226776,0.5798339247703552,66.66667175292969,35869.0,1.0
2058.1867599,331133.40625,331293.0,331950.78125,331483.90625,331397.25,331570.1875,331674.6875,306088.1875,0.3984375,0.724365234375,0.552734375,-1.9836424589157104,-0.1831054538488388,0.6103515028953552,66.66667175292969,35870.0,1.0
2058.1949255,331065.84375,331225.40625,331883.28125,331416.5625,331329.65625,331502.59375,331610.3125,306836.96875,0.398681640625,0.72314453125,0.55078125,-1.9226073026657104,-0.2746581733226776,0.7019042372703552,66.66667175292969,35871.0,1.0
2058.1992671,331078.78125,331238.375,331896.875,331429.8125,331342.71875,331515.53125,331624.625,308499.96875,0.39892578125,0.722900390625,0.55029296875,-2.044677495956421,-0.2136230319738388,0.7019042372703552,66.66667175292969,35872.0,1.0
2058.1992738,331132.0,331291.65625,331949.875,331483.09375,331395.75,331568.75,331677.46875,308078.21875,0.400390625,0.722900390625,0.549560546875,-2.075195074081421,-0.2136230319738388,0.7019042372703552,66.66667175292969,35873.0,1.0
2058.2024208,331117.0625,331276.46875,331934.6875,331467.625,331380.4375,331553.46875,331658.5,306238.5,0.398193359375,0.72412109375,0.549560546875,-1.9836424589157104,-0.1831054538488388,0.6103515028953552,66.66667175292969,35874.0,1.0
2058.2255064,331042.5,331202.34375,331860.125,331393.40625,331305.96875,331479.0625,331586.96875,306554.90625,0.398681640625,0.7236328125,0.553955078125,-1.9531248807907104,-0.2136230319738388,0.7019042372703552,66.66667175292969,35875.0,1.0
2058.2255129,331043.84375,331203.15625,331861.46875,331394.59375,331307.40625,331480.59375,331589.5625,308269.03125,0.399658203125,0.724365234375,0.5537109375,-2.014159917831421,-0.3051757514476776,0.7019042372703552,66.66667175292969,35876.0,1.0
2058.2280043,331096.21875,331255.8125,331913.9375,331447.15625,331359.8125,331532.8125,331641.875,308290.75,0.39794921875,0.7236328125,0.550537109375,-2.014159917831421,-0.1831054538488388,0.7629393935203552,66.66667175292969,35877.0,1.0
2058.2280094,331097.125,331257.0625,331914.84375,331447.875,331361.125,331533.875,331639.375,306460.21875,0.39794921875,0.723388671875,0.549560546875,-1.8920897245407104,-0.2746581733226776,0.7629393935203552,66.66667175292969,35878.0,1.0
2058.2448821,331023.4375,331182.9375,331841.4375,331374.1875,331287.5625,331460.21875,331567.40625,306337.03125,0.39990234375,0.7216796875,0.54931640625,-2.044677495956421,-0.2746581733226776,0.7324218153953552,66.66667175292969,35879.0,1.0
2058.244889,331013.15625,331173.03125,331831.40625,331364.4375,331277.28125,331450.09375,331559.4375,307999.53125,0.39990234375,0.722900390625,0.549560546875,-1.9531248807907104,-0.2441406100988388,0.5798339247703552,66.66667175292969,35880.0,1.0
2058.2448914,331062.625,331222.28125,331880.5,331413.875,331326.4375,331499.53125,331608.8125,308465.625,0.399658203125,0.72265625,0.55078125,-2.014159917831421,-0.2746581733226776,0.6103515028953552,66.66667175292969,35881.0,1.0
2058.2474275,331081.65625,331241.34375,331899.28125,331432.65625,331345.5,331518.6875,331624.8125,306743.46875,0.399658203125,0.721435546875,0.550537109375,-1.9226073026657104,-0.2136230319738388,0.6103515028953552,66.66667175292969,35882.0,1.0
2058.2510989,331007.34375,331167.125,331824.90625,331358.28125,331271.28125,331444.125,331550.0625,306149.8125,0.3994140625,0.722900390625,0.55078125,-1.9226073026657104,-0.2441406100988388,0.6103515028953552,66.66667175292969,35883.0,1.0
2058.2511046,330981.96875,331141.75,331799.875,331333.34375,331245.8125,331418.625,331527.71875,307684.65625,0.398193359375,0.721435546875,0.55078125,-1.8920897245407104,-0.3356933295726776,0.7019042372703552,66.66667175292969,35884.0,1.0
2058.2511069,331023.53125,331183.03125,331841.25,331374.5625,331287.5625,331460.21875,331569.71875,308568.25,0.39794921875,0.72216796875,0.551025390625,-1.9226073026657104,-0.2441406100988388,0.6408690810203552,66.66667175292969,35885.0,1.0
2058.2536706,331055.375,331215.40625,331873.09375,331406.375,331319.84375,331492.3125,331599.9375,307086.6875,0.400634765625,0.722412109375,0.5498046875,-1.9531248807907104,-0.2136230319738388,0.6103515028953552,66.66667175292969,35886.0,1.0
2058.2561907,330996.53125,331156.3125,331813.90625,331347.5625,331260.46875,331433.5625,331539.40625,306050.65625,0.400634765625,0.72216796875,0.55126953125,-1.9836424589157104,-0.1220703050494194,0.7324218153953552,66.66667175292969,35887.0,1.0
2058.2599196,330961.65625,331121.25,331779.75,331313.03125,331225.34375,331398.5,331507.59375,307348.21875,0.398193359375,0.720458984375,0.5478515625,-1.9226073026657104,-0.2136230319738388,0.6713866591453552,66.66667175292969,35888.0,1.0
2058.2742555,330994.75,331154.15625,331812.75,331345.9375,331258.5,331431.15625,331540.9375,308588.375,0.39892578125,0.72216796875,0.552490234375,-1.9836424589157104,-0.3051757514476776,0.6103515028953552,66.66667175292969,35889.0,1.0
2058.2742625,331035.625,331195.125,331853.0625,331386.4375,331299.09375,331471.8125,331579.84375,307411.78125,0.398193359375,0.720703125,0.552001953125,-2.044677495956421,-0.3051757514476776,0.6713866591453552,66.66667175292969,35890.0,1.0
2058.2761736,330987.6875,331147.0,331804.96875,331338.4375,331251.15625,331424.0,331529.03125,305994.40625,0.397705078125,0.720947265625,0.55517578125,-1.9531248807907104,-0.3051757514476776,0.7324218153953552,66.66667175292969,35891.0,1.0
2058.2786741,330936.28125,331095.875,331753.8125,331287.28125,331199.9375,331373.03125,331481.46875,307023.5,0.396484375,0.720458984375,0.551513671875,-1.9836424589157104,-0.2746581733226776,0.6713866591453552,66.66667175292969,35892.0,1.0
2058.2824227,330958.4375,331118.03125,331776.0,331309.375,331221.84375,331395.125,331504.46875,308531.15625,0.396728515625,0.722900390625,0.551513671875,-1.9531248807907104,-0.3051757514476776,0.6713866591453552,66.66667175292969,35893.0,1.0
2058.291331,331010.125,331169.625,331827.65625,331360.96875,331273.25,331446.4375,331554.71875,307749.5625,0.398681640625,0.720947265625,0.552001953125,-2.014159917831421,-0.2441406100988388,0.5493163466453552,66.66667175292969,35894.0,1.0
2058.2942584,331000.90625,331160.25,331818.28125,331351.5,331263.96875,331437.40625,331542.0,306172.6875,0.39990234375,0.720947265625,0.551513671875,-1.9226073026657104,-0.1831054538488388,0.6103515028953552,66.66667175292969,35895.0,1.0
2058.2942644,330960.40625,331120.0,331778.125,331311.53125,331223.90625,331397.15625,331505.71875,306715.375,0.39892578125,0.7216796875,0.551025390625,-1.9836424589157104,-0.1525878757238388,0.6103515028953552,66.66667175292969,35896.0,1.0
2058.2961742,330974.0,331133.6875,331791.625,331325.1875,331238.03125,331410.84375,331520.28125,308341.34375,0.3994140625,0.723388671875,0.551025390625,-1.9226073026657104,-0.2136230319738388,0.6408690810203552,66.66667175292969,35897.0,1.0
2058.3105112,331027.90625,331187.6875,331845.71875,331379.125,331291.9375,331464.6875,331573.84375,307964.5,0.400390625,0.722412109375,0.551025390625,-1.9836424589157104,-0.2136230319738388,0.5493163466453552,66.66667175292969,35898.0,1.0
2058.3105175,331015.59375,331175.25,331833.03125,331366.5,331279.5,331452.25,331557.9375,306122.625,0.4013671875,0.72265625,0.552001953125,-2.014159917831421,-0.2136230319738388,0.5798339247703552,66.66667175292969,35899.0,1.0
2058.3129991,330939.6875,331099.28125,331757.40625,331290.78125,331203.59375,331376.875,331484.53125,306393.96875,0.40087890625,0.7236328125,0.55029296875,-1.9836424589157104,-0.2136230319738388,0.5798339247703552,66.66667175292969,35900.0,1.0
2058.3130045,330937.0,331096.3125,331754.875,331288.625,331201.09375,331374.46875,331482.90625,308115.78125,0.39990234375,0.724609375,0.549072265625,-1.9531248807907104,-0.2136230319738388,0.6408690810203552,66.66667175292969,35901.0,1.0
2058.3149184,330990.71875,331149.78125,331808.1875,331341.90625,331254.75,331427.46875,331536.125,308196.875,0.400146484375,0.724609375,0.552490234375,-1.9836424589157104,-0.2136230319738388,0.7019042372703552,66.66667175292969,35902.0,1.0
2058.3311744,330995.71875,331155.0625,331812.65625,331346.5625,331259.40625,331432.21875,331537.8125,306360.28125,0.398193359375,0.724853515625,0.553466796875,-2.014159917831421,-0.3051757514476776,0.7324218153953552,66.66667175292969,35903.0,1.0
2058.3342513,330918.125,331077.4375,331735.125,331268.96875,331181.4375,331354.6875,331461.53125,306191.09375,0.401611328125,0.721923828125,0.5517578125,-1.9836424589157104,-0.3051757514476776,0.7324218153953552,66.66667175292969,35904.0,1.0
2058.3342562,330905.15625,331064.5,331722.4375,331256.09375,331168.65625,331341.5625,331450.5625,307847.90625,0.399169921875,0.72216796875,0.551513671875,-1.9836424589157104,-0.1220703050494194,0.7934569716453552,66.66667175292969,35905.0,1.0
2058.3367478,330954.78125,331114.09375,331772.15625,331305.875,331218.09375,331391.28125,331500.34375,308359.6875,0.400634765625,0.722412109375,0.550537109375,-2.014159917831421,-0.1525878757238388,0.7324218153953552,66.66667175292969,35906.0,1.0
2058.3367532,330974.71875,331134.03125,331792.0,331325.5625,331238.46875,331411.46875,331517.34375,306662.28125,0.401123046875,0.7216796875,0.552978515625,-1.9836424589157104,-0.1831054538488388,0.6713866591453552,66.66667175292969,35907.0,1.0
2058.3386653,330899.8125,331059.21875,331717.15625,331250.28125,331163.28125,331336.46875,331442.3125,306011.3125,0.3994140625,0.72314453125,0.55078125,-1.9531248807907104,-0.1220703050494194,0.7019042372703552,66.66667175292969,35908.0,1.0
2058.3499196,330872.09375,331031.5,331689.96875,331223.0,331135.5625,331308.5625,331417.65625,307527.5625,0.400634765625,0.722412109375,0.551025390625,-1.9226073026657104,-0.2441406100988388,0.6408690810203552,66.66667175292969,35909.0,1.0
2058.3529992,330913.9375,331073.25,331732.0,331264.75,331177.15625,331350.40625,331459.5,308457.03125,0.399658203125,0.722900390625,0.54931640625,-1.8615721464157104,-0.2441406100988388,0.6713866591453552,66.66667175292969,35910.0,1.0
2058.3530048,330948.53125,331107.75,331766.15625,331299.0,331211.65625,331385.09375,331491.6875,307001.40625,0.400146484375,0.719970703125,0.550048828125,-1.9226073026657104,-0.1831054538488388,0.6713866591453552,66.66667175292969,35911.0,1.0
2058.3549258,330887.90625,331047.15625,331705.8125,331238.90625,331151.46875,331324.46875,331430.0625,305917.0,0.396728515625,0.72119140625,0.551025390625,-1.9226073026657104,-0.2136230319738388,0.7324218153953552,66.66667175292969,35912.0,1.0
2058.3612098,330846.875,331006.375,331664.9375,331198.34375,331110.625,331283.53125,331392.34375,307197.375,0.3974609375,0.720703125,0.551513671875,-2.014159917831421,-0.2441406100988388,0.6103515028953552,66.66667175292969,35913.0,1.0
2058.3867657,330877.4375,331037.03125,331695.875,331228.8125,331141.125,331314.1875,331424.0,308472.15625,0.39892578125,0.721923828125,0.55126953125,-1.9226073026657104,-0.1525878757238388,0.6713866591453552,66.66667175292969,35914.0,1.0
2058.3867724,330922.96875,331082.625,331741.21875,331274.25,331186.71875,331359.96875,331467.8125,307337.75,0.39892578125,0.722900390625,0.55078125,-1.8615721464157104,-0.1220703050494194,0.6408690810203552,66.66667175292969,35915.0,1.0
2058.3886658,330876.90625,331036.78125,331694.625,331228.1875,331140.75,331314.03125,331418.53125,305878.71875,0.3984375,0.72314453125,0.551513671875,-1.9531248807907104,-0.1831054538488388,0.7324218153953552,66.66667175292969,35916.0,1.0
2058.3912951,330823.0,330983.125,331640.8125,331174.71875,331087.375,331260.28125,331368.5625,306867.46875,0.3994140625,0.72216796875,0.551025390625,-1.8920897245407104,-0.1220703050494194,0.6713866591453552,66.66667175292969,35917.0,1.0
2058.3936675,330843.65625,331003.34375,331661.375,331195.28125,331107.5,331280.6875,331389.5625,308398.75,0.39794921875,0.721435546875,0.553466796875,-1.9226073026657104,-0.1831054538488388,0.6103515028953552,66.66667175292969,35918.0,1.0
2058.399994,330894.625,331054.03125,331712.5,331245.71875,331158.375,331331.625,331439.46875,307648.4375,0.39892578125,0.722412109375,0.552490234375,-1.9836424589157104,-0.03051757626235485,0.7019042372703552,66.66667175292969,35919.0,1.0
2058.4024172,330869.125,331028.625,331687.21875,331220.5,331133.34375,331306.59375,331410.65625,305945.0625,0.39697265625,0.723388671875,0.552490234375,-1.9836424589157104,-0.1525878757238388,0.7324218153953552,66.66667175292969,35920.0,1.0
2058.4049216,330806.625,330966.21875,331624.625,331158.0,331070.84375,331243.84375,331351.5625,306568.75,0.397705078125,0.7216796875,0.552734375,-2.014159917831421,-0.2441406100988388,0.6713866591453552,66.66667175292969,35921.0,1.0
2058.4074167,330815.5,330975.15625,331633.5625,331166.9375,331079.6875,331252.34375,331361.59375,308243.0,0.3994140625,0.721435546875,0.552978515625,-1.9531248807907104,-0.2441406100988388,0.7629393935203552,66.66667175292969,35922.0,1.0
2058.4099333,330871.09375,331030.96875,331689.09375,331222.5625,331134.9375,331308.03125,331417.03125,307915.59375,0.39990234375,0.722412109375,0.550537109375,-1.9531248807907104,-0.1525878757238388,0.7324218153953552,66.66667175292969,35923.0,1.0
2058.4124331,330861.8125,331021.5625,331678.96875,331212.71875,331125.5625,331298.65625,331403.875,306065.5,0.39892578125,0.72265625,0.55078125,-1.8920897245407104,-0.2136230319738388,0.6408690810203552,66.66667175292969,35924.0,1.0
2058.4155009,330789.75,330949.25,331607.28125,331141.03125,331053.59375,331226.5,331334.5,306275.96875,0.39697265625,0.722900390625,0.552978515625,-1.9226073026657104,-0.2746581733226776,0.7019042372703552,66.66667175292969,35925.0,1.0
2058.4155076,330787.5,330947.0,331605.59375,331139.40625,331051.34375,331224.71875,331333.875,307993.5625,0.396484375,0.724609375,0.553955078125,-1.8920897245407104,-0.2746581733226776,0.6408690810203552,66.66667175292969,35926.0,1.0
2058.4174142,330839.90625,330999.5,331658.0625,331191.53125,331103.90625,331276.84375,331386.1875,308121.3125,0.3974609375,0.72314453125,0.553955078125,-1.9226073026657104,-0.2746581733226776,0.6408690810203552,66.66667175292969,35927.0,1.0
2058.4211789,330847.21875,331006.90625,331664.5,331198.25,331111.4375,331283.71875,331389.75,306304.65625,0.398681640625,0.722412109375,0.54931640625,-1.9531248807907104,-0.3051757514476776,0.6408690810203552,66.66667175292969,35928.0,1.0
2058.4305009,330772.5625,330932.0,331590.03125,331123.6875,331036.40625,331209.15625,331316.34375,306080.25,0.3994140625,0.722412109375,0.551513671875,-1.9836424589157104,-0.2136230319738388,0.6713866591453552,66.66667175292969,35929.0,1.0
2058.4305073,330758.1875,330917.875,331576.0,331109.625,331022.28125,331194.9375,331304.375,307717.1875,0.396484375,0.7216796875,0.553466796875,-2.014159917831421,-0.2441406100988388,0.6408690810203552,66.66667175292969,35930.0,1.0
2058.4328911,330806.1875,330966.40625,331624.4375,331157.75,331070.5625,331243.40625,331352.75,308279.84375,0.39892578125,0.721923828125,0.551513671875,-2.044677495956421,-0.3051757514476776,0.6103515028953552,66.66667175292969,35931.0,1.0
2058.432895,330834.1875,330994.125,331652.15625,331185.375,331098.46875,331271.1875,331377.21875,306684.09375,0.39892578125,0.722900390625,0.550048828125,-1.9836424589157104,-0.1525878757238388,0.6713866591453552,66.66667175292969,35932.0,1.0
2058.4399153,330792.875,330952.71875,331610.84375,331144.0625,331057.0625,331229.90625,331336.46875,305996.5625,0.398193359375,0.72265625,0.54931640625,-1.9531248807907104,-0.0915527269244194,0.5493163466453552,66.66667175292969,35933.0,1.0
2058.4436829,330775.15625,330934.75,331593.15625,331126.625,331039.28125,331212.28125,331321.34375,307354.84375,0.398681640625,0.721923828125,0.55126953125,-2.044677495956421,-0.2136230319738388,0.5798339247703552,66.66667175292969,35934.0,1.0
2058.4524194,330817.53125,330976.96875,331635.4375,331168.65625,331081.5625,331254.46875,331363.90625,308324.34375,0.39794921875,0.720947265625,0.55126953125,-1.9836424589157104,-0.2746581733226776,0.5187987685203552,66.66667175292969,35935.0,1.0
2058.4567517,330852.40625,331012.0,331670.5,331203.53125,331116.53125,331289.4375,331396.625,306900.5625,0.3994140625,0.72265625,0.548583984375,-1.9531248807907104,-0.2441406100988388,0.6103515028953552,66.66667175292969,35936.0,1.0
2058.4567584,330790.53125,330950.125,331608.09375,331141.65625,331054.28125,331227.3125,331332.96875,305754.8125,0.397705078125,0.722412109375,0.55224609375,-1.9226073026657104,-0.1831054538488388,0.7324218153953552,66.66667175292969,35937.0,1.0
2058.4624197,330748.0625,330907.59375,331565.625,331099.09375,331012.09375,331184.375,331293.46875,307022.59375,0.3974609375,0.723388671875,0.552734375,-1.9836424589157104,-0.1831054538488388,0.6713866591453552,66.66667175292969,35938.0,1.0
2058.4667575,330779.09375,330938.5,331596.90625,331129.9375,331042.59375,331215.40625,331324.9375,308336.0625,0.3974609375,0.7236328125,0.555419921875,-1.9226073026657104,-0.1525878757238388,0.6408690810203552,66.66667175292969,35939.0,1.0
2058.4667638,330823.96875,330983.5,331641.15625,331174.5625,331087.5625,331260.8125,331368.75,307236.1875,0.39794921875,0.723388671875,0.554443359375,-1.9226073026657104,-0.1831054538488388,0.7019042372703552,66.66667175292969,35940.0,1.0
2058.474918,330778.65625,330938.25,331595.65625,331129.125,331042.3125,331215.6875,331320.71875,305734.5,0.3994140625,0.724609375,0.5478515625,-1.8920897245407104,-0.2441406100988388,0.7019042372703552,66.66667175292969,35941.0,1.0
2058.4792482,330721.875,330881.75,331539.59375,331072.8125,330985.53125,331159.09375,331267.8125,306701.1875,0.398193359375,0.724365234375,0.552490234375,-1.8615721464157104,-0.2746581733226776,0.7324218153953552,66.66667175292969,35942.0,1.0
2058.4792536,330741.5625,330901.59375,331559.34375,331092.65625,331005.3125,331178.3125,331288.0,308257.9375,0.39794921875,0.72412109375,0.55078125,-1.9836424589157104,-0.2136230319738388,0.7019042372703552,66.66667175292969,35943.0,1.0
2058.487412,330792.5,330952.90625,331610.3125,331143.96875,331056.53125,331229.25,331338.15625,307552.34375,0.39697265625,0.723388671875,0.551513671875,-1.9531248807907104,-0.1831054538488388,0.6713866591453552,66.66667175292969,35944.0,1.0
2058.4905062,330764.96875,330925.46875,331583.0625,331116.625,331029.09375,331202.4375,331307.21875,305818.1875,0.39697265625,0.723876953125,0.55029296875,-2.014159917831421,-0.0915527269244194,0.5493163466453552,66.66667175292969,35945.0,1.0
2058.4905121,330698.46875,330858.5,331516.1875,331050.375,330962.28125,331135.5625,331243.5625,306408.46875,0.397216796875,0.72265625,0.55126953125,-2.014159917831421,-0.1220703050494194,0.6103515028953552,66.66667175292969,35946.0,1.0
2058.4961721,330707.75,330867.625,331525.03125,331058.9375,330971.875,331144.5,331253.84375,308100.5625,0.396728515625,0.723388671875,0.552734375,-1.9836424589157104,-0.1525878757238388,0.6713866591453552,66.66667175292969,35947.0,1.0
2058.5024186,330762.1875,330921.96875,331579.28125,331113.21875,331026.125,331199.21875,331307.84375,307831.46875,0.397705078125,0.72216796875,0.552734375,-1.9531248807907104,-0.1220703050494194,0.7019042372703552,66.66667175292969,35948.0,1.0
2058.5092469,330754.25,330914.09375,331571.34375,331104.90625,331018.09375,331191.09375,331296.21875,305979.125,0.3994140625,0.721435546875,0.552001953125,-1.9226073026657104,-0.2136230319738388,0.7019042372703552,66.66667175292969,35949.0,1.0
2058.5092526,330680.9375,330841.15625,331498.1875,331031.84375,330944.78125,331117.5,331225.25,306147.75,0.39990234375,0.72119140625,0.551025390625,-1.9836424589157104,-0.2441406100988388,0.7324218153953552,66.66667175292969,35950.0,1.0
2058.5155018,330678.875,330839.1875,331496.3125,331029.875,330942.96875,331115.625,331224.71875,307847.375,0.39892578125,0.72119140625,0.5498046875,-1.9531248807907104,-0.2441406100988388,0.7629393935203552,66.66667175292969,35951.0,1.0
2058.5155084,330731.53125,330891.5,331548.90625,331082.625,330995.28125,331167.84375,331277.53125,308022.625,0.3974609375,0.72265625,0.551513671875,-1.9836424589157104,-0.2746581733226776,0.7019042372703552,66.66667175292969,35952.0,1.0
2058.5174196,330740.375,330900.25,331557.65625,331091.59375,331003.96875,331177.3125,331282.71875,306216.9375,0.39892578125,0.721435546875,0.55126953125,-2.014159917831421,-0.1831054538488388,0.7019042372703552,66.66667175292969,35953.0,1.0
2058.5311641,330667.78125,330827.65625,331484.875,331018.53125,330931.28125,331104.28125,331210.5,305930.84375,0.398193359375,0.72119140625,0.550048828125,-1.9836424589157104,-0.2746581733226776,0.7324218153953552,66.66667175292969,35954.0,1.0
2058.538444,330652.40625,330812.53125,331469.78125,331003.5,330916.25,331088.90625,331198.0625,307555.46875,0.3984375,0.723388671875,0.548583984375,-1.9836424589157104,-0.2136230319738388,0.6713866591453552,66.66667175292969,35955.0,1.0
2058.5384493,330698.1875,330858.5,331516.1875,331049.5625,330962.125,331135.125,331244.65625,308169.875,0.3974609375,0.721435546875,0.549072265625,-1.9531248807907104,-0.1220703050494194,0.7324218153953552,66.66667175292969,35956.0,1.0
2058.5384513,330722.15625,330882.375,331539.96875,331073.6875,330986.0625,331159.09375,331265.28125,306522.8125,0.398681640625,0.720947265625,0.5498046875,-1.9836424589157104,-0.2441406100988388,0.6713866591453552,66.66667175292969,35957.0,1.0
2058.5455194,330653.9375,330813.625,331470.9375,331005.125,330917.6875,331090.40625,331196.1875,305774.21875,0.39794921875,0.721923828125,0.55224609375,-1.9531248807907104,-0.2746581733226776,0.7019042372703552,66.66667175292969,35958.0,1.0
2058.545525,330625.15625,330785.1875,331442.6875,330976.5,330889.0625,331061.625,331170.71875,307231.96875,0.398681640625,0.722900390625,0.550537109375,-1.9226073026657104,-0.1525878757238388,0.7934569716453552,66.66667175292969,35959.0,1.0
2058.5511598,330664.46875,330824.53125,331482.03125,331015.84375,330928.5,331101.15625,331210.84375,308248.53125,0.3974609375,0.72119140625,0.54736328125,-1.9226073026657104,-0.2136230319738388,0.7019042372703552,66.66667175292969,35960.0,1.0
2058.5605011,330700.0625,330859.75,331517.15625,331051.53125,330964.09375,331136.5625,331244.09375,306858.34375,0.3974609375,0.72314453125,0.54833984375,-1.9226073026657104,-0.2136230319738388,0.7324218153953552,66.66667175292969,35961.0,1.0
2058.5605085,330641.15625,330801.1875,331458.3125,330992.4375,330905.0625,331078.0,331183.75,305678.1875,0.39990234375,0.72216796875,0.552490234375,-1.9531248807907104,-0.2441406100988388,0.6713866591453552,66.66667175292969,35962.0,1.0
2058.5667582,330597.6875,330757.65625,331415.5,330949.40625,330861.96875,331034.1875,331143.53125,306897.875,0.399658203125,0.721923828125,0.549072265625,-1.9836424589157104,-0.2441406100988388,0.6103515028953552,66.66667175292969,35963.0,1.0
2058.5667635,330627.8125,330787.875,331445.71875,330979.71875,330892.03125,331064.40625,331174.09375,308241.84375,0.399169921875,0.724365234375,0.5517578125,-1.9531248807907104,-0.2441406100988388,0.6103515028953552,66.66667175292969,35964.0,1.0
2058.5692634,330673.96875,330834.0,331491.84375,331025.59375,330938.0625,331110.875,331218.8125,307190.0625,0.400634765625,0.722900390625,0.551513671875,-1.9531248807907104,-0.3051757514476776,0.6408690810203552,66.66667175292969,35965.0,1.0
2058.5692689,330630.6875,330790.71875,331447.875,330981.96875,330894.625,331067.4375,331172.3125,305660.46875,0.39892578125,0.722412109375,0.547119140625,-1.9836424589157104,-0.2746581733226776,0.7019042372703552,66.66667175292969,35966.0,1.0
2058.5824107,330574.4375,330734.3125,331391.375,330925.90625,330838.28125,331011.125,331119.5625,306573.21875,0.399658203125,0.72265625,0.55029296875,-1.9226073026657104,-0.2746581733226776,0.6713866591453552,66.66667175292969,35967.0,1.0
2058.5898779,330593.5,330753.34375,331410.21875,330944.9375,330857.34375,331030.4375,331139.5,308146.625,0.39794921875,0.724365234375,0.5517578125,-1.9531248807907104,-0.1831054538488388,0.6713866591453552,66.66667175292969,35968.0,1.0
2058.5898847,330647.21875,330807.09375,331464.3125,330998.78125,330911.4375,331084.0625,331192.4375,307502.71875,0.398193359375,0.723388671875,0.552490234375,-1.9226073026657104,-0.1831054538488388,0.6408690810203552,66.66667175292969,35969.0,1.0
2058.589887,330641.875,330801.625,331459.03125,330992.96875,330906.25,331078.71875,331183.59375,305864.875,0.398681640625,0.722900390625,0.550537109375,-1.9836424589157104,-0.3051757514476776,0.7019042372703552,66.66667175292969,35970.0,1.0
2058.5929944,330600.03125,330759.4375,331417.1875,330951.125,330863.78125,331036.78125,331144.96875,306284.71875,0.39990234375,0.72314453125,0.54833984375,-1.8615721464157104,-0.2746581733226776,0.6713866591453552,66.66667175292969,35971.0,1.0
2058.5929995,330609.125,330768.5625,331426.3125,330960.34375,330872.96875,331045.8125,331155.25,307940.8125,0.400146484375,0.721923828125,0.55322265625,-1.8615721464157104,-0.2746581733226776,0.5798339247703552,66.66667175292969,35972.0,1.0
2058.603663,330662.4375,330822.03125,331479.78125,331013.34375,330926.34375,331099.09375,331208.0,307731.3125,0.398681640625,0.72265625,0.552490234375,-1.9836424589157104,-0.2441406100988388,0.5798339247703552,66.66667175292969,35973.0,1.0
2058.6129986,330656.625,330816.125,331473.78125,331007.34375,330920.46875,331093.1875,331198.59375,305878.53125,0.3994140625,0.723388671875,0.5537109375,-1.9226073026657104,-0.1831054538488388,0.6408690810203552,66.66667175292969,35974.0,1.0
2058.6130049,330582.3125,330741.8125,331399.6875,330933.3125,330846.4375,331019.15625,331126.625,305986.09375,0.3994140625,0.720703125,0.55224609375,-1.9226073026657104,-0.1525878757238388,0.6408690810203552,66.66667175292969,35975.0,1.0
2058.6192462,330577.9375,330737.71875,331395.75,330929.21875,330842.03125,331015.03125,331124.46875,307682.59375,0.39794921875,0.7216796875,0.552490234375,-1.9836424589157104,-0.1525878757238388,0.6408690810203552,66.66667175292969,35976.0,1.0
2058.6192508,330630.15625,330790.0,331448.03125,330981.59375,330894.53125,331067.4375,331176.5,307907.625,0.39697265625,0.720947265625,0.5537109375,-2.075195074081421,-0.2746581733226776,0.6103515028953552,66.66667175292969,35977.0,1.0
2058.6254925,330638.65625,330798.15625,331456.34375,330989.75,330903.09375,331075.9375,331181.25,306105.625,0.3994140625,0.72216796875,0.552001953125,-1.9531248807907104,-0.2136230319738388,0.6408690810203552,66.66667175292969,35978.0,1.0
2058.625498,330562.90625,330722.0625,331380.4375,330913.9375,330826.9375,330999.3125,331106.5,305772.25,0.3994140625,0.722412109375,0.55126953125,-2.014159917831421,-0.2746581733226776,0.6713866591453552,66.66667175292969,35979.0,1.0
2058.6274249,330545.75,330705.15625,331363.1875,330896.9375,330809.6875,330982.21875,331091.75,307391.21875,0.399658203125,0.72119140625,0.551513671875,-1.9226073026657104,-0.3051757514476776,0.7629393935203552,66.66667175292969,35980.0,1.0
2058.6417502,330591.625,330750.9375,331408.96875,330942.96875,330855.375,331028.375,331137.4375,308051.5,0.40087890625,0.722412109375,0.5498046875,-1.9531248807907104,-0.3051757514476776,0.7324218153953552,66.66667175292969,35981.0,1.0
2058.641757,330617.28125,330777.03125,331434.46875,330968.46875,330881.21875,331054.21875,331160.59375,306432.0625,0.400634765625,0.723876953125,0.55224609375,-1.9836424589157104,-0.2746581733226776,0.6713866591453552,66.66667175292969,35982.0,1.0
2058.6436284,330550.65625,330710.15625,331367.5625,330901.40625,330814.25,330987.40625,331092.90625,305626.6875,0.3984375,0.72265625,0.54931640625,-1.9531248807907104,-0.2136230319738388,0.6408690810203552,66.66667175292969,35983.0,1.0
2058.6466038,330519.8125,330679.0625,331336.71875,330870.75,330783.40625,330956.40625,331065.03125,307064.53125,0.39892578125,0.723876953125,0.55078125,-1.9836424589157104,-0.1525878757238388,0.7629393935203552,66.66667175292969,35984.0,1.0
2058.6466081,330558.28125,330717.84375,331375.90625,330909.46875,330822.28125,330994.84375,331104.28125,308120.0625,0.399169921875,0.723876953125,0.551025390625,-1.9226073026657104,-0.2136230319738388,0.7324218153953552,66.66667175292969,35985.0,1.0
2058.6524326,330595.0,330754.34375,331412.8125,330946.125,330858.9375,331031.84375,331139.21875,306765.28125,0.39892578125,0.723388671875,0.5498046875,-1.9531248807907104,-0.2746581733226776,0.7019042372703552,66.66667175292969,35986.0,1.0
2058.6549132,330540.90625,330700.0625,331358.1875,330891.75,330804.5,330977.75,331083.1875,305541.9375,0.3994140625,0.72265625,0.550048828125,-1.9226073026657104,-0.2136230319738388,0.7019042372703552,66.66667175292969,35987.0,1.0
2058.666165,330495.6875,330655.0,331313.125,330846.875,330759.53125,330932.625,331041.34375,306731.40625,0.39990234375,0.723876953125,0.551513671875,-1.8310545682907104,-0.3051757514476776,0.6408690810203552,66.66667175292969,35988.0,1.0
2058.6692452,330523.21875,330682.71875,331340.75,330874.40625,330787.3125,330959.875,331069.21875,308108.0,0.399169921875,0.723388671875,0.552734375,-1.8310545682907104,-0.1831054538488388,0.7019042372703552,66.66667175292969,35989.0,1.0
2058.6692521,330569.8125,330729.21875,331387.59375,330920.8125,330834.09375,331006.28125,331114.75,307099.03125,0.39892578125,0.722412109375,0.55224609375,-1.9226073026657104,-0.2441406100988388,0.5493163466453552,66.66667175292969,35990.0,1.0
2058.6711636,330529.65625,330689.5,331347.46875,330880.84375,330793.84375,330966.21875,331071.71875,305539.59375,0.39990234375,0.72216796875,0.551025390625,-1.8920897245407104,-0.2441406100988388,0.5493163466453552,66.66667175292969,35991.0,1.0
2058.6774108,330472.0,330631.84375,331289.78125,330823.4375,330735.8125,330908.75,331017.375,306415.6875,0.40185546875,0.7236328125,0.55224609375,-1.8310545682907104,-0.2746581733226776,0.6103515028953552,66.66667175292969,35992.0,1.0
2058.6842509,330490.0625,330649.71875,331307.84375,330841.15625,330753.875,330927.0625,331036.3125,308014.03125,0.400634765625,0.724365234375,0.551513671875,-1.9226073026657104,-0.2746581733226776,0.6408690810203552,66.66667175292969,35993.0,1.0
2058.684258,330543.6875,330703.71875,331361.84375,330895.0625,330807.53125,330980.90625,331089.34375,307404.53125,0.398681640625,0.722412109375,0.551513671875,-1.9226073026657104,-0.2746581733226776,0.5798339247703552,66.66667175292969,35994.0,1.0
2058.6899249,330521.34375,330681.65625,331339.40625,330872.53125,330785.375,330958.28125,331063.15625,305607.46875,0.399169921875,0.722412109375,0.553955078125,-1.9836424589157104,-0.2746581733226776,0.6713866591453552,66.66667175292969,35995.0,1.0
2058.6942586,330449.46875,330609.5,331267.53125,330800.5625,330713.21875,330886.46875,330993.9375,306108.6875,0.398193359375,0.72216796875,0.5537109375,-1.8920897245407104,-0.2746581733226776,0.5493163466453552,66.66667175292969,35996.0,1.0
2058.6942636,330455.0,330615.03125,331272.8125,330806.375,330719.03125,330891.75,331000.84375,307816.875,0.399658203125,0.7236328125,0.5546875,-1.9226073026657104,-0.2746581733226776,0.6713866591453552,66.66667175292969,35997.0,1.0
2058.7024091,330508.375,330668.59375,331326.53125,330860.1875,330772.5625,330945.65625,331054.375,307649.25,0.400146484375,0.7236328125,0.551513671875,-1.9226073026657104,-0.1831054538488388,0.6408690810203552,66.66667175292969,35998.0,1.0
2058.7049148,330516.96875,330676.90625,331334.6875,330868.25,330781.0625,330954.0625,331058.40625,305919.65625,0.39892578125,0.722900390625,0.549072265625,-1.8615721464157104,-0.1831054538488388,0.6713866591453552,66.66667175292969,35999.0,1.0
2058.7198768,330472.875,330632.84375,331290.875,330824.25,330737.09375,330909.90625,331017.375,305911.1875,0.398681640625,0.72265625,0.54833984375,-1.9531248807907104,-0.1220703050494194,0.5187987685203552,66.66667175292969,36000.0,1.0
2058.7198832,330472.15625,330632.125,331289.78125,330823.34375,330736.0,330909.375,331018.09375,307532.5625,0.39794921875,0.72314453125,0.5498046875,-2.014159917831421,-0.2136230319738388,0.6713866591453552,66.66667175292969,36001.0,1.0
2058.7198857,330522.9375,330683.15625,331340.65625,330874.78125,330786.96875,330960.0625,331069.21875,307806.4375,0.398681640625,0.721435546875,0.550048828125,-1.9226073026657104,-0.3051757514476776,0.6713866591453552,66.66667175292969,36002.0,1.0
2058.72242,330534.65625,330694.78125,331351.9375,330885.84375,330798.78125,330971.59375,331077.0,306019.1875,0.39892578125,0.722900390625,0.552490234375,-1.8615721464157104,-0.3051757514476776,0.6713866591453552,66.66667175292969,36003.0,1.0
2058.724922,330457.9375,330617.71875,331275.125,330808.96875,330722.0625,330894.96875,331001.0,305627.65625,0.3994140625,0.722412109375,0.553955078125,-1.8615721464157104,-0.2746581733226776,0.7019042372703552,66.66667175292969,36004.0,1.0
2058.7274212,330438.71875,330598.78125,331256.8125,330790.09375,330702.9375,330875.84375,330985.0,307236.28125,0.401611328125,0.720947265625,0.55419921875,-1.9531248807907104,-0.3356933295726776,0.6713866591453552,66.66667175292969,36005.0,1.0
2058.7336614,330484.0625,330644.53125,331302.59375,330836.0625,330748.6875,330921.4375,331030.875,307945.1875,0.400634765625,0.722412109375,0.55419921875,-1.9836424589157104,-0.2441406100988388,0.6103515028953552,66.66667175292969,36006.0,1.0
2058.7454988,330510.625,330670.46875,331328.6875,330862.15625,330774.625,330947.625,331054.03125,306341.65625,0.398681640625,0.722900390625,0.552001953125,-1.9531248807907104,-0.3356933295726776,0.6103515028953552,66.66667175292969,36007.0,1.0
2058.7455052,330439.8125,330599.75,331257.6875,330791.15625,330703.46875,330876.09375,330982.3125,305482.5625,0.39892578125,0.72265625,0.552734375,-1.9531248807907104,-0.2746581733226776,0.6713866591453552,66.66667175292969,36008.0,1.0
2058.7479959,330406.09375,330566.3125,331224.25,330757.71875,330670.03125,330842.75,330951.9375,306906.28125,0.3984375,0.72216796875,0.5537109375,-1.9531248807907104,-0.2441406100988388,0.7324218153953552,66.66667175292969,36009.0,1.0
2058.7480013,330444.09375,330603.9375,331261.8125,330795.65625,330707.84375,330880.75,330990.375,308007.5,0.400634765625,0.72216796875,0.5546875,-1.9531248807907104,-0.2746581733226776,0.7324218153953552,66.66667175292969,36010.0,1.0
2058.7526513,330483.34375,330643.375,331301.25,330834.90625,330747.375,330920.46875,331027.5625,306691.0625,0.400146484375,0.722900390625,0.55419921875,-1.8310545682907104,-0.2441406100988388,0.6103515028953552,66.66667175292969,36011.0,1.0
2058.7574165,330429.34375,330589.28125,331246.96875,330780.875,330693.71875,330866.4375,330971.5,305418.09375,0.3984375,0.72119140625,0.554443359375,-1.8920897245407104,-0.3051757514476776,0.6408690810203552,66.66667175292969,36012.0,1.0
2058.7611691,330384.375,330543.875,331201.8125,330735.90625,330648.21875,330820.9375,330929.3125,306577.78125,0.3974609375,0.72216796875,0.5498046875,-1.9531248807907104,-0.4272460639476776,0.6103515028953552,66.66667175292969,36013.0,1.0
2058.7680025,330410.46875,330570.59375,331228.1875,330761.9375,330674.40625,330847.3125,330956.5625,307985.15625,0.39794921875,0.72265625,0.549560546875,-1.9226073026657104,-0.3051757514476776,0.5493163466453552,66.66667175292969,36014.0,1.0
2058.7680095,330457.5,330617.46875,331275.21875,330808.78125,330721.25,330894.25,331002.71875,307014.71875,0.397705078125,0.721923828125,0.553466796875,-2.014159917831421,-0.3356933295726776,0.5187987685203552,66.66667175292969,36015.0,1.0
2058.7736754,330418.78125,330578.65625,331236.0625,330769.8125,330682.71875,330855.71875,330960.40625,305412.09375,0.397216796875,0.72314453125,0.552001953125,-1.9531248807907104,-0.3051757514476776,0.6713866591453552,66.66667175292969,36016.0,1.0
2058.7829989,330357.09375,330516.875,331174.71875,330708.28125,330621.125,330794.125,330902.21875,306259.78125,0.39697265625,0.7236328125,0.55029296875,-1.9226073026657104,-0.3051757514476776,0.7019042372703552,66.66667175292969,36017.0,1.0
2058.7830053,330372.9375,330532.34375,331190.28125,330723.84375,330636.75,330809.5,330918.9375,307876.96875,0.399169921875,0.725341796875,0.553466796875,-1.9836424589157104,-0.3051757514476776,0.6713866591453552,66.66667175292969,36018.0,1.0
2058.785504,330426.65625,330586.6875,331244.28125,330777.9375,330690.78125,330863.15625,330972.3125,307317.53125,0.400634765625,0.721923828125,0.553955078125,-1.9226073026657104,-0.2746581733226776,0.7019042372703552,66.66667175292969,36019.0,1.0
2058.7855095,330406.625,330566.59375,331224.15625,330757.65625,330670.75,330843.46875,330948.4375,305511.875,0.39794921875,0.723388671875,0.55322265625,-1.9531248807907104,-0.3662109076976776,0.6713866591453552,66.66667175292969,36020.0,1.0
2058.7936582,330337.25,330497.03125,331154.78125,330688.4375,330601.09375,330773.75,330881.84375,305952.3125,0.39990234375,0.72412109375,0.5517578125,-1.9836424589157104,-0.2746581733226776,0.7629393935203552,66.66667175292969,36021.0,1.0
2058.8029993,330342.0,330501.9375,331159.53125,330693.28125,330605.90625,330778.46875,330887.90625,307668.5625,0.39697265625,0.72412109375,0.552490234375,-1.9226073026657104,-0.2441406100988388,0.5798339247703552,66.66667175292969,36022.0,1.0
2058.8030058,330396.0,330556.21875,331213.875,330747.375,330660.375,330832.75,330942.28125,307556.09375,0.399169921875,0.724365234375,0.552001953125,-1.9531248807907104,-0.2441406100988388,0.7324218153953552,66.66667175292969,36023.0,1.0
2058.8049054,330393.21875,330553.34375,331210.84375,330744.59375,330657.5,330830.34375,330935.75,305712.78125,0.398681640625,0.72265625,0.552734375,-1.9836424589157104,-0.1831054538488388,0.6713866591453552,66.66667175292969,36024.0,1.0
2058.8086616,330317.9375,330477.96875,331135.375,330668.9375,330582.125,330754.5,330861.90625,305732.0,0.3994140625,0.721435546875,0.55029296875,-1.9226073026657104,-0.2441406100988388,0.6713866591453552,66.66667175292969,36025.0,1.0
2058.8129998,330308.5625,330468.40625,331125.8125,330659.5625,330572.65625,330745.03125,330854.46875,307418.03125,0.39892578125,0.72216796875,0.551513671875,-1.9226073026657104,-0.2746581733226776,0.7019042372703552,66.66667175292969,36026.0,1.0
2058.8130055,330359.5,330519.09375,331176.59375,330710.875,330623.53125,330796.1875,330905.78125,307750.375,0.400146484375,0.721923828125,0.550537109375,-1.9531248807907104,-0.2136230319738388,0.6713866591453552,66.66667175292969,36027.0,1.0
2058.8261557,330383.125,330543.15625,331200.375,330734.40625,330647.03125,330819.78125,330926.0,306075.59375,0.399169921875,0.7216796875,0.552001953125,-1.8920897245407104,-0.2136230319738388,0.6103515028953552,66.66667175292969,36028.0,1.0
2058.8286595,330341.46875,330501.3125,331158.90625,330692.65625,330605.46875,330778.03125,330885.5,305601.65625,0.397705078125,0.72265625,0.55126953125,-1.9226073026657104,-0.2441406100988388,0.5187987685203552,66.66667175292969,36029.0,1.0
2058.831754,330327.15625,330487.1875,331145.21875,330678.25,330591.34375,330764.15625,330873.4375,307067.03125,0.39794921875,0.723876953125,0.552001953125,-1.9531248807907104,-0.2136230319738388,0.6103515028953552,66.66667175292969,36030.0,1.0
2058.8317594,330371.21875,330531.53125,331189.3125,330722.5,330635.34375,330807.96875,330917.40625,307831.09375,0.39892578125,0.723876953125,0.549560546875,-1.9226073026657104,-0.1831054538488388,0.6408690810203552,66.66667175292969,36031.0,1.0
2058.833674,330400.8125,330561.21875,331218.96875,330752.5625,330665.09375,330837.75,330944.6875,306262.46875,0.398681640625,0.723388671875,0.551025390625,-1.9531248807907104,-0.2746581733226776,0.5798339247703552,66.66667175292969,36032.0,1.0
2058.8474094,330331.71875,330491.46875,331149.6875,330683.0625,330596.0,330768.625,330874.59375,305342.90625,0.399169921875,0.721923828125,0.55029296875,-1.9531248807907104,-0.2441406100988388,0.7019042372703552,66.66667175292969,36033.0,1.0
2058.850504,330296.5625,330456.53125,331114.8125,330648.125,330560.9375,330733.59375,330843.03125,306739.96875,0.399169921875,0.722900390625,0.548828125,-2.014159917831421,-0.1525878757238388,0.6408690810203552,66.66667175292969,36034.0,1.0
2058.8505103,330333.125,330493.53125,331151.3125,330685.03125,330597.6875,330770.34375,330880.40625,307887.6875,0.397705078125,0.721923828125,0.550048828125,-1.9836424589157104,-0.1831054538488388,0.6713866591453552,66.66667175292969,36035.0,1.0
2058.8524197,330372.21875,330532.25,331189.9375,330723.9375,330636.21875,330809.21875,330916.96875,306608.90625,0.3994140625,0.72314453125,0.548095703125,-1.9531248807907104,-0.2136230319738388,0.6408690810203552,66.66667175292969,36036.0,1.0
2058.8547756,330319.0,330478.875,331136.5625,330669.9375,330582.84375,330755.84375,330861.28125,305282.65625,0.3984375,0.72314453125,0.5498046875,-1.9531248807907104,-0.2441406100988388,0.6713866591453552,66.66667175292969,36037.0,1.0
2058.8624144,330268.3125,330428.28125,331086.03125,330619.5,330532.15625,330705.15625,330814.25,306414.0,0.397705078125,0.720458984375,0.55126953125,-1.9836424589157104,-0.2441406100988388,0.7019042372703552,66.66667175292969,36038.0,1.0
2058.871748,330294.34375,330454.46875,331112.40625,330645.96875,330558.53125,330731.71875,330840.78125,307855.78125,0.3974609375,0.722412109375,0.5498046875,-1.8615721464157104,-0.1831054538488388,0.7324218153953552,66.66667175292969,36039.0,1.0
2058.8717545,330343.5,330503.625,331161.6875,330695.0625,330607.875,330780.875,330888.8125,306938.09375,0.400146484375,0.72216796875,0.550048828125,-1.8615721464157104,-0.2136230319738388,0.6408690810203552,66.66667175292969,36040.0,1.0
2058.8742616,330307.21875,330467.15625,331125.03125,330658.59375,330571.6875,330744.0625,330849.1875,305309.71875,0.4013671875,0.722900390625,0.554443359375,-1.8920897245407104,-0.2441406100988388,0.6713866591453552,66.66667175292969,36041.0,1.0
2058.874267,330247.40625,330407.25,331065.03125,330598.9375,330511.6875,330684.34375,330792.5,306096.5,0.400146484375,0.722412109375,0.554931640625,-1.9836424589157104,-0.2746581733226776,0.7019042372703552,66.66667175292969,36042.0,1.0
2058.8874094,330260.53125,330420.5,331078.4375,330612.0,330524.75,330697.125,330806.8125,307736.25,0.400390625,0.722412109375,0.551025390625,-1.9226073026657104,-0.1525878757238388,0.6103515028953552,66.66667175292969,36043.0,1.0
2058.8923537,330313.8125,330474.03125,331131.90625,330665.375,330578.21875,330750.84375,330859.75,307232.53125,0.398681640625,0.721923828125,0.5517578125,-1.9531248807907104,-0.1831054538488388,0.6408690810203552,66.66667175292969,36044.0,1.0
2058.8923597,330296.75,330456.625,331114.75,330648.375,330561.3125,330733.875,330839.28125,305414.25,0.3994140625,0.7216796875,0.550048828125,-1.9226073026657104,-0.2136230319738388,0.7019042372703552,66.66667175292969,36045.0,1.0
2058.8923621,330223.875,330383.84375,331041.96875,330575.53125,330488.25,330660.90625,330769.1875,305823.5625,0.39892578125,0.7236328125,0.55322265625,-1.9836424589157104,-0.2746581733226776,0.6408690810203552,66.66667175292969,36046.0,1.0
2058.8961583,330227.0,330386.59375,331044.8125,330578.28125,330491.21875,330663.9375,330773.375,307534.8125,0.3984375,0.72314453125,0.551025390625,-2.014159917831421,-0.3051757514476776,0.7019042372703552,66.66667175292969,36047.0,1.0
2058.9074081,330281.09375,330441.0625,331099.0,330632.46875,330545.03125,330718.03125,330827.46875,307471.3125,0.397705078125,0.72216796875,0.55224609375,-1.9836424589157104,-0.2746581733226776,0.7934569716453552,66.66667175292969,36048.0,1.0
2058.9148745,330280.125,330440.4375,331097.9375,330631.84375,330544.59375,330717.15625,330822.71875,305628.28125,0.397705078125,0.72314453125,0.553466796875,-1.8920897245407104,-0.1831054538488388,0.6408690810203552,66.66667175292969,36049.0,1.0
2058.9148809,330204.65625,330364.53125,331022.28125,330556.03125,330469.03125,330641.40625,330748.625,305588.0625,0.39892578125,0.720947265625,0.55224609375,-1.8920897245407104,-0.1831054538488388,0.6103515028953552,66.66667175292969,36050.0,1.0
2058.9148833,330194.65625,330354.59375,331012.625,330546.1875,330458.84375,330631.40625,330740.65625,307264.71875,0.39990234375,0.723388671875,0.5517578125,-1.8615721464157104,-0.0610351525247097,0.6103515028953552,66.66667175292969,36051.0,1.0
2058.9179969,330246.0625,330406.0,331064.03125,330597.5,330510.15625,330683.0625,330792.5,307649.4375,0.40087890625,0.723388671875,0.5537109375,-1.9226073026657104,-0.1525878757238388,0.7324218153953552,66.66667175292969,36052.0,1.0
2058.9180031,330261.15625,330421.28125,331079.34375,330612.625,330525.625,330698.53125,330804.40625,305896.34375,0.398193359375,0.7236328125,0.55615234375,-1.8920897245407104,-0.2136230319738388,0.7019042372703552,66.66667175292969,36053.0,1.0
2058.9261646,330185.875,330345.75,331003.59375,330537.0625,330450.09375,330623.0,330729.03125,305387.78125,0.39892578125,0.723388671875,0.55419921875,-1.9531248807907104,-0.1831054538488388,0.7629393935203552,66.66667175292969,36054.0,1.0
2058.9305023,330163.71875,330323.40625,330981.59375,330514.90625,330427.8125,330600.5625,330709.625,306953.65625,0.39990234375,0.72216796875,0.549072265625,-2.075195074081421,-0.1220703050494194,0.6408690810203552,66.66667175292969,36055.0,1.0
2058.9305077,330207.625,330367.84375,331025.96875,330559.53125,330472.0,330644.71875,330754.34375,307762.34375,0.397705078125,0.72314453125,0.5517578125,-2.014159917831421,-0.1831054538488388,0.6103515028953552,66.66667175292969,36056.0,1.0
2058.9336576,330244.625,330404.65625,331062.78125,330596.09375,330508.90625,330681.375,330788.5,306290.71875,0.398681640625,0.72216796875,0.55029296875,-1.8920897245407104,-0.3662109076976776,0.7019042372703552,66.66667175292969,36057.0,1.0
2058.9479953,330210.125,330370.0625,331027.65625,330561.03125,330473.78125,330646.40625,330753.1875,305367.75,0.400634765625,0.72216796875,0.549072265625,-1.9531248807907104,-0.3051757514476776,0.7324218153953552,66.66667175292969,36058.0,1.0
2058.9480026,330185.625,330345.125,331002.875,330536.53125,330449.28125,330621.9375,330731.4375,306583.59375,0.400634765625,0.7216796875,0.5517578125,-1.9226073026657104,-0.2441406100988388,0.7019042372703552,66.66667175292969,36059.0,1.0
2058.9567357,330219.25,330379.0,331036.875,330570.6875,330483.34375,330656.15625,330765.875,307758.875,0.400146484375,0.723388671875,0.551513671875,-1.9226073026657104,-0.3051757514476776,0.6713866591453552,66.66667175292969,36060.0,1.0
2058.956742,330260.09375,330419.9375,331077.71875,330611.46875,330524.375,330697.03125,330804.9375,306519.84375,0.3994140625,0.722412109375,0.5517578125,-1.8310545682907104,-0.2441406100988388,0.7324218153953552,66.66667175292969,36061.0,1.0
2058.962887,330206.71875,330366.65625,331024.0625,330557.8125,330470.65625,330643.65625,330748.6875,305154.25,0.399658203125,0.7216796875,0.55029296875,-1.8615721464157104,-0.2136230319738388,0.6713866591453552,66.66667175292969,36062.0,1.0
2058.9628936,330155.9375,330315.34375,330972.9375,330507.03125,330419.78125,330592.40625,330700.875,306249.65625,0.39892578125,0.72265625,0.555419921875,-1.9836424589157104,-0.1525878757238388,0.6408690810203552,66.66667175292969,36063.0,1.0
2058.9705038,330180.96875,330339.9375,330998.0625,330531.90625,330444.53125,330617.46875,330726.71875,307717.65625,0.4013671875,0.719970703125,0.553466796875,-1.9226073026657104,-0.2136230319738388,0.7019042372703552,66.66667175292969,36064.0,1.0
2058.9705099,330231.03125,330390.1875,331048.03125,330582.125,330494.59375,330667.53125,330775.78125,306849.0625,0.3994140625,0.7216796875,0.552978515625,-1.8310545682907104,-0.1525878757238388,0.7019042372703552,66.66667175292969,36065.0,1.0
2058.9842423,330197.25,330356.84375,331014.78125,330548.25,330461.25,330633.8125,330738.875,305199.0625,0.39697265625,0.7236328125,0.552001953125,-1.9226073026657104,-0.2441406100988388,0.7019042372703552,66.66667175292969,36066.0,1.0
2058.9842496,330133.84375,330293.4375,330951.65625,330485.125,330398.125,330570.59375,330679.40625,305941.5625,0.397216796875,0.721923828125,0.551513671875,-1.9226073026657104,-0.1831054538488388,0.6713866591453552,66.66667175292969,36067.0,1.0
2058.9867414,330147.71875,330307.65625,330965.25,330498.8125,330411.8125,330584.375,330693.90625,307592.90625,0.39892578125,0.723388671875,0.554443359375,-1.9836424589157104,-0.1831054538488388,0.7019042372703552,66.66667175292969,36068.0,1.0
2058.9867464,330201.25,330360.84375,331018.8125,330552.1875,330465.0,330637.65625,330746.5625,307145.25,0.39892578125,0.723388671875,0.55322265625,-1.9531248807907104,-0.1525878757238388,0.6713866591453552,66.66667175292969,36069.0,1.0
2058.9886664,330185.78125,330345.5625,331003.25,330536.8125,330449.8125,330622.5625,330727.6875,305319.75,0.397216796875,0.721923828125,0.554443359375,-1.9836424589157104,-0.2441406100988388,0.6408690810203552,66.66667175292969,36070.0,1.0
2058.9924071,330113.90625,330273.78125,330931.71875,330465.1875,330378.46875,330551.125,330658.9375,305663.15625,0.39794921875,0.722900390625,0.552734375,-1.9836424589157104,-0.3051757514476776,0.6103515028953552,66.66667175292969,36071.0,1.0
2059.0012058,330114.625,330274.40625,330932.625,330465.71875,330379.0,330551.375,330660.90625,307369.5,0.397216796875,0.7236328125,0.550537109375,-1.9531248807907104,-0.3356933295726776,0.7019042372703552,66.66667175292969,36072.0,1.0
2059.0267471,330168.53125,330328.5,330986.25,330519.8125,330432.75,330605.125,330714.09375,307360.5625,0.39697265625,0.7236328125,0.55126953125,-1.9531248807907104,-0.2136230319738388,0.7019042372703552,66.66667175292969,36073.0,1.0
2059.0267545,330170.875,330330.71875,330988.03125,330521.53125,330434.71875,330607.34375,330712.65625,305517.78125,0.39794921875,0.720703125,0.552978515625,-1.9531248807907104,-0.1831054538488388,0.6713866591453552,66.66667175292969,36074.0,1.0
2059.0286631,330094.875,330254.5625,330912.3125,330446.0625,330358.875,330531.4375,330638.5625,305431.6875,0.400146484375,0.721923828125,0.55126953125,-1.8615721464157104,-0.1220703050494194,0.6713866591453552,66.66667175292969,36075.0,1.0
2059.0311808,330083.78125,330243.09375,330901.21875,330434.875,330347.96875,330520.28125,330629.53125,307105.65625,0.3994140625,0.720947265625,0.55322265625,-1.8920897245407104,-0.1831054538488388,0.6713866591453552,66.66667175292969,36076.0,1.0
2059.0336683,330133.125,330292.46875,330950.59375,330484.3125,330397.25,330569.625,330679.3125,307541.78125,0.39990234375,0.722900390625,0.551513671875,-1.9531248807907104,-0.2136230319738388,0.7019042372703552,66.66667175292969,36077.0,1.0
2059.0361583,330151.28125,330310.4375,330968.375,330502.125,330415.40625,330587.78125,330694.34375,305817.5625,0.399169921875,0.7236328125,0.553466796875,-1.9531248807907104,-0.1220703050494194,0.7934569716453552,66.66667175292969,36078.0,1.0
2059.0386666,330078.875,330238.1875,330896.40625,330429.78125,330342.96875,330515.875,330622.09375,305255.65625,0.398681640625,0.720947265625,0.5546875,-1.9531248807907104,-0.2746581733226776,0.7019042372703552,66.66667175292969,36079.0,1.0
2059.0412572,330055.53125,330215.125,330872.875,330406.4375,330319.375,330492.09375,330601.375,306792.375,0.397216796875,0.72119140625,0.5517578125,-1.9531248807907104,-0.2136230319738388,0.6713866591453552,66.66667175292969,36080.0,1.0
2059.0436559,330098.1875,330257.84375,330915.53125,330449.1875,330362.28125,330534.46875,330644.09375,307647.0,0.3984375,0.723876953125,0.551025390625,-1.9226073026657104,-0.1220703050494194,0.6713866591453552,66.66667175292969,36081.0,1.0
2059.0461596,330133.3125,330293.0,330950.59375,330484.40625,330397.78125,330570.0625,330676.90625,306201.5625,0.398681640625,0.72314453125,0.5517578125,-1.8310545682907104,-0.2136230319738388,0.7324218153953552,66.66667175292969,36082.0,1.0
2059.0486784,330101.125,330260.8125,330918.40625,330452.125,330365.15625,330537.96875,330643.84375,305231.875,0.3974609375,0.721923828125,0.55029296875,-1.8615721464157104,-0.2136230319738388,0.7324218153953552,66.66667175292969,36083.0,1.0
2059.051177,330078.5,330237.90625,330895.59375,330429.34375,330342.34375,330515.09375,330623.875,306417.75,0.3974609375,0.72216796875,0.55078125,-1.9226073026657104,-0.1831054538488388,0.5493163466453552,66.66667175292969,36084.0,1.0
2059.0542379,330112.40625,330271.625,330929.5625,330463.125,330376.0625,330548.78125,330658.21875,307634.3125,0.398193359375,0.7197265625,0.553955078125,-1.9531248807907104,-0.3051757514476776,0.6103515028953552,66.66667175292969,36085.0,1.0
2059.054244,330152.28125,330312.125,330970.0,330503.5625,330416.28125,330589.125,330697.125,306433.40625,0.399169921875,0.721923828125,0.55419921875,-1.8920897245407104,-0.2746581733226776,0.5798339247703552,66.66667175292969,36086.0,1.0
2059.0628878,330097.8125,330257.84375,330915.28125,330449.28125,330361.75,330535.03125,330639.8125,305017.46875,0.39892578125,0.722900390625,0.5517578125,-1.8615721464157104,-0.2136230319738388,0.7019042372703552,66.66667175292969,36087.0,1.0
2059.0628943,330043.46875,330203.59375,330861.53125,330394.65625,330307.46875,330480.46875,330589.125,306088.1875,0.3974609375,0.72265625,0.552490234375,-1.9226073026657104,-0.1831054538488388,0.7019042372703552,66.66667175292969,36088.0,1.0
2059.0705159,330068.3125,330228.34375,330886.125,330419.25,330332.5,330505.34375,330614.5,307594.875,0.399658203125,0.722412109375,0.553955078125,-1.8920897245407104,-0.1220703050494194,0.7324218153953552,66.66667175292969,36089.0,1.0
2059.0705219,330116.9375,330276.71875,330934.5,330467.6875,330380.78125,330553.71875,330661.875,306774.21875,0.3974609375,0.72265625,0.552978515625,-1.9531248807907104,-0.2746581733226776,0.7629393935203552,66.66667175292969,36090.0,1.0
2059.0749063,330082.875,330242.84375,330900.15625,330433.71875,330347.0,330519.71875,330624.59375,305076.5625,0.3994140625,0.7216796875,0.552490234375,-1.8310545682907104,-0.1831054538488388,0.6713866591453552,66.66667175292969,36091.0,1.0
2059.0774066,330018.0625,330178.1875,330835.6875,330369.0,330282.28125,330455.0,330563.1875,305781.1875,0.39990234375,0.72314453125,0.55322265625,-1.8615721464157104,-0.3051757514476776,0.7019042372703552,66.66667175292969,36092.0,1.0
2059.0811586,330030.5,330190.71875,330847.9375,330381.875,330294.5,330467.6875,330576.875,307442.90625,0.398681640625,0.721923828125,0.5546875,-1.9531248807907104,-0.2136230319738388,0.6713866591453552,66.66667175292969,36093.0,1.0
2059.0849131,330084.59375,330244.1875,330902.21875,330435.78125,330348.34375,330521.4375,330630.40625,307039.75,0.39892578125,0.721923828125,0.55126953125,-1.9226073026657104,-0.2746581733226776,0.7019042372703552,66.66667175292969,36094.0,1.0
2059.0892385,330070.71875,330230.15625,330888.34375,330421.75,330334.21875,330507.5625,330612.53125,305216.40625,0.399169921875,0.7216796875,0.550537109375,-1.9226073026657104,-0.2136230319738388,0.6103515028953552,66.66667175292969,36095.0,1.0
2059.0892445,329997.0625,330157.0,330814.78125,330348.53125,330261.4375,330434.15625,330541.71875,305515.1875,0.398681640625,0.725341796875,0.55224609375,-1.8920897245407104,-0.3051757514476776,0.6713866591453552,66.66667175292969,36096.0,1.0
2059.1024062,329997.3125,330157.46875,330815.125,330348.875,330261.96875,330434.71875,330544.21875,307226.53125,0.398681640625,0.723388671875,0.55078125,-1.9226073026657104,-0.3356933295726776,0.6713866591453552,66.66667175292969,36097.0,1.0
2059.1054859,330050.6875,330210.28125,330868.15625,330401.8125,330314.71875,330487.1875,330596.4375,307271.21875,0.40087890625,0.7236328125,0.5498046875,-1.9531248807907104,-0.2441406100988388,0.6103515028953552,66.66667175292969,36098.0,1.0
2059.1054932,330055.96875,330215.5625,330873.25,330406.53125,330320.0,330492.71875,330598.21875,305432.21875,0.399169921875,0.7236328125,0.5498046875,-2.014159917831421,-0.1525878757238388,0.5798339247703552,66.66667175292969,36099.0,1.0
2059.1074102,329977.46875,330137.0625,330794.9375,330328.40625,330241.40625,330414.3125,330521.4375,305288.53125,0.3984375,0.7236328125,0.549072265625,-1.9836424589157104,-0.1831054538488388,0.7324218153953552,66.66667175292969,36100.0,1.0
2059.1111507,329964.15625,330123.84375,330781.6875,330315.53125,330228.09375,330400.8125,330510.15625,306956.875,0.3974609375,0.721923828125,0.549560546875,-1.8615721464157104,-0.1525878757238388,0.6103515028953552,66.66667175292969,36101.0,1.0
2059.1254879,330014.21875,330174.0,330831.6875,330365.3125,330278.15625,330450.96875,330560.40625,307443.25,0.39794921875,0.720703125,0.55078125,-1.9226073026657104,-0.1525878757238388,0.7019042372703552,66.66667175292969,36102.0,1.0
2059.1254945,330034.53125,330194.5625,330851.78125,330385.4375,330298.71875,330471.53125,330577.40625,305738.96875,0.3984375,0.7236328125,0.55419921875,-1.8920897245407104,-0.1831054538488388,0.6408690810203552,66.66667175292969,36103.0,1.0
2059.1279845,329962.375,330122.125,330780.0,330313.28125,330226.5625,330399.3125,330505.15625,305115.28125,0.396728515625,0.723876953125,0.556640625,-1.8920897245407104,-0.2441406100988388,0.6713866591453552,66.66667175292969,36104.0,1.0
2059.1279901,329936.34375,330096.3125,330753.96875,330287.625,330200.5625,330373.0,330482.09375,306631.78125,0.3994140625,0.723388671875,0.55615234375,-1.8920897245407104,-0.2136230319738388,0.6713866591453552,66.66667175292969,36105.0,1.0
2059.129911,329976.5,330136.53125,330794.125,330327.875,330240.78125,330413.34375,330522.78125,307539.71875,0.3994140625,0.72412109375,0.5517578125,-1.9531248807907104,-0.3051757514476776,0.6103515028953552,66.66667175292969,36106.0,1.0
2059.1386584,330013.59375,330173.28125,330830.96875,330364.6875,330277.71875,330450.71875,330556.9375,306123.25,0.399169921875,0.72265625,0.550048828125,-1.9531248807907104,-0.1831054538488388,0.6103515028953552,66.66667175292969,36107.0,1.0
2059.1454969,329982.9375,330142.78125,330800.375,330334.125,330247.3125,330419.9375,330525.46875,305105.625,0.399169921875,0.722412109375,0.5517578125,-1.9531248807907104,-0.1831054538488388,0.6103515028953552,66.66667175292969,36108.0,1.0
2059.1455036,329958.0625,330117.75,330775.96875,330309.09375,330222.8125,330395.375,330503.90625,306256.8125,0.399169921875,0.72265625,0.55029296875,-2.014159917831421,-0.2441406100988388,0.7019042372703552,66.66667175292969,36109.0,1.0
2059.1474224,329989.375,330149.21875,330807.53125,330340.65625,330254.1875,330426.65625,330535.46875,307511.8125,0.39892578125,0.72216796875,0.549560546875,-1.9531248807907104,-0.3051757514476776,0.6103515028953552,66.66667175292969,36110.0,1.0
2059.1586699,330034.53125,330194.375,330852.3125,330385.875,330298.90625,330471.4375,330579.0,306354.09375,0.400146484375,0.722900390625,0.550048828125,-1.9836424589157104,-0.3051757514476776,0.6408690810203552,66.66667175292969,36111.0,1.0
2059.1617358,329984.53125,330144.5,330802.34375,330335.90625,330249.28125,330421.84375,330526.09375,304886.65625,0.398681640625,0.7216796875,0.5517578125,-2.014159917831421,-0.2441406100988388,0.6103515028953552,66.66667175292969,36112.0,1.0
2059.1617414,329928.9375,330088.4375,330746.8125,330279.9375,330192.9375,330365.6875,330473.96875,305910.71875,0.397705078125,0.721435546875,0.54833984375,-2.075195074081421,-0.1525878757238388,0.6713866591453552,66.66667175292969,36113.0,1.0
2059.1636559,329948.6875,330108.28125,330766.40625,330299.625,330212.71875,330385.25,330494.59375,307449.25,0.397705078125,0.7216796875,0.5517578125,-2.075195074081421,-0.2136230319738388,0.7019042372703552,66.66667175292969,36114.0,1.0
2059.1749154,329999.03125,330158.875,330816.65625,330349.78125,330263.21875,330435.96875,330544.0625,306683.28125,0.398193359375,0.72216796875,0.54931640625,-1.9531248807907104,-0.2136230319738388,0.7019042372703552,66.66667175292969,36115.0,1.0
2059.1817415,329969.25,330128.84375,330786.4375,330319.71875,330233.28125,330406.09375,330510.0,304968.65625,0.398193359375,0.721435546875,0.5478515625,-1.9836424589157104,-0.2136230319738388,0.7324218153953552,66.66667175292969,36116.0,1.0
2059.1817486,329901.84375,330061.78125,330720.0,330253.46875,330166.46875,330338.9375,330446.5,305631.875,0.398681640625,0.7216796875,0.548583984375,-1.9226073026657104,-0.1831054538488388,0.6713866591453552,66.66667175292969,36117.0,1.0
2059.1966679,329914.34375,330074.40625,330732.4375,330265.90625,330179.0,330351.375,330460.46875,307306.46875,0.398193359375,0.72265625,0.552734375,-2.014159917831421,-0.2136230319738388,0.6408690810203552,66.66667175292969,36118.0,1.0
2059.1966748,329967.90625,330128.03125,330786.0625,330319.5625,330232.5625,330404.9375,330513.75,306957.40625,0.39892578125,0.72265625,0.5537109375,-1.9836424589157104,-0.1525878757238388,0.6408690810203552,66.66667175292969,36119.0,1.0
2059.1966772,329954.3125,330114.625,330772.21875,330305.6875,330219.0625,330391.53125,330496.3125,305114.5625,0.39794921875,0.72216796875,0.551513671875,-1.9531248807907104,-0.2136230319738388,0.6713866591453552,66.66667175292969,36120.0,1.0
2059.1966793,329878.78125,330039.0,330696.5,330229.78125,330143.25,330315.96875,330422.90625,305370.0,0.397705078125,0.7216796875,0.551025390625,-1.9836424589157104,-0.1831054538488388,0.5798339247703552,66.66667175292969,36121.0,1.0
2059.2029868,329877.53125,330037.65625,330695.25,330228.53125,330141.8125,330314.53125,330423.34375,307084.1875,0.395751953125,0.721923828125,0.55029296875,-1.8310545682907104,-0.2136230319738388,0.6408690810203552,66.66667175292969,36122.0,1.0
2059.2029932,329931.4375,330090.9375,330748.4375,330282.1875,330195.28125,330368.09375,330476.71875,307182.53125,0.39697265625,0.72265625,0.55224609375,-1.9226073026657104,-0.2441406100988388,0.7019042372703552,66.66667175292969,36123.0,1.0
2059.2054832,329936.625,330095.9375,330753.4375,330287.1875,330200.5625,330373.1875,330478.25,305361.15625,0.397216796875,0.722900390625,0.551025390625,-1.8920897245407104,-0.1831054538488388,0.7324218153953552,66.66667175292969,36124.0,1.0
2059.2054888,329861.875,330021.375,330678.96875,330212.53125,330125.53125,330298.375,330404.9375,305155.3125,0.3974609375,0.723876953125,0.552978515625,-1.9836424589157104,-0.3356933295726776,0.7019042372703552,66.66667175292969,36125.0,1.0
2059.2161615,329848.90625,330008.21875,330666.34375,330199.75,330112.9375,330285.21875,330394.65625,306798.625,0.397705078125,0.724365234375,0.552001953125,-1.9836424589157104,-0.2746581733226776,0.6713866591453552,66.66667175292969,36126.0,1.0
2059.2192328,329897.09375,330056.96875,330714.5625,330248.28125,330161.3125,330333.6875,330443.1875,307338.1875,0.397216796875,0.722900390625,0.55078125,-1.8920897245407104,-0.2441406100988388,0.7324218153953552,66.66667175292969,36127.0,1.0
2059.2192385,329919.4375,330079.125,330736.375,330270.09375,330183.46875,330355.84375,330461.71875,305661.5625,0.398681640625,0.722412109375,0.55029296875,-1.8615721464157104,-0.1525878757238388,0.7324218153953552,66.66667175292969,36128.0,1.0
2059.2211561,329847.3125,330006.90625,330664.3125,330197.96875,330111.59375,330283.78125,330389.46875,304978.21875,0.3994140625,0.72314453125,0.5517578125,-1.8920897245407104,-0.1220703050494194,0.6713866591453552,66.66667175292969,36129.0,1.0
2059.2299067,329819.59375,329979.28125,330637.125,330170.78125,330084.21875,330256.53125,330365.59375,306473.8125,0.399169921875,0.722412109375,0.552734375,-1.9226073026657104,-0.2441406100988388,0.6713866591453552,66.66667175292969,36130.0,1.0
2059.2336771,329861.53125,330021.375,330678.96875,330212.4375,330125.71875,330298.28125,330407.53125,307425.09375,0.3994140625,0.72265625,0.55224609375,-1.9226073026657104,-0.2136230319738388,0.6103515028953552,66.66667175292969,36131.0,1.0
2059.2380006,329899.5,330059.375,330716.875,330250.4375,330163.53125,330336.28125,330442.9375,306042.15625,0.39892578125,0.723876953125,0.548828125,-1.9226073026657104,-0.2136230319738388,0.6103515028953552,66.66667175292969,36132.0,1.0
2059.2380078,329868.5,330028.25,330685.59375,330219.25,330132.59375,330305.25,330410.84375,304985.0,0.3994140625,0.72265625,0.54931640625,-1.9531248807907104,-0.2136230319738388,0.7019042372703552,66.66667175292969,36133.0,1.0
2059.2461552,329842.21875,330002.0625,330659.75,330193.21875,330106.59375,330278.875,330387.59375,306102.3125,0.3984375,0.72265625,0.551025390625,-1.8920897245407104,-0.1525878757238388,0.6103515028953552,66.66667175292969,36134.0,1.0
2059.248648,329872.78125,330032.375,330690.59375,330223.78125,330136.96875,330309.4375,330418.6875,307390.5,0.39990234375,0.722412109375,0.551025390625,-1.8920897245407104,-0.2441406100988388,0.6408690810203552,66.66667175292969,36135.0,1.0
2059.2524105,329920.15625,330079.65625,330737.71875,330271.0,330184.53125,330356.75,330464.75,306275.34375,0.3974609375,0.723876953125,0.552001953125,-1.9226073026657104,-0.2136230319738388,0.6408690810203552,66.66667175292969,36136.0,1.0
2059.2617357,329872.4375,330032.09375,330689.5,330223.15625,330136.71875,330308.8125,330413.78125,304759.6875,0.39892578125,0.72265625,0.550537109375,-1.8310545682907104,-0.1831054538488388,0.6713866591453552,66.66667175292969,36137.0,1.0
2059.2617425,329812.0,329971.9375,330629.53125,330163.1875,330076.53125,330249.0,330357.09375,305741.75,0.399658203125,0.72314453125,0.54931640625,-2.044677495956421,-0.0915527269244194,0.7019042372703552,66.66667175292969,36138.0,1.0
2059.2679855,329831.84375,329991.34375,330649.46875,330182.9375,330096.03125,330268.3125,330377.75,307306.0,0.39990234375,0.72314453125,0.55029296875,-2.014159917831421,-0.2136230319738388,0.7629393935203552,66.66667175292969,36139.0,1.0
2059.2679913,329882.78125,330042.75,330700.6875,330234.0,330147.25,330319.5625,330428.1875,306592.71875,0.39892578125,0.7236328125,0.5517578125,-1.9226073026657104,-0.2136230319738388,0.6103515028953552,66.66667175292969,36140.0,1.0
2059.269907,329854.8125,330014.5,330672.15625,330205.5625,330119.0,330291.65625,330396.71875,304859.65625,0.39892578125,0.722900390625,0.552490234375,-1.9226073026657104,-0.2441406100988388,0.6103515028953552,66.66667175292969,36141.0,1.0
2059.2836535,329786.15625,329945.8125,330603.59375,330137.0625,330050.0625,330222.625,330330.90625,305480.84375,0.398681640625,0.723876953125,0.548583984375,-1.8920897245407104,-0.2441406100988388,0.6713866591453552,66.66667175292969,36142.0,1.0
2059.2867383,329794.71875,329954.15625,330612.09375,330145.375,330058.84375,330231.125,330340.75,307165.90625,0.397705078125,0.725830078125,0.55078125,-1.9531248807907104,-0.2136230319738388,0.6713866591453552,66.66667175292969,36143.0,1.0
2059.2867454,329848.03125,330007.59375,330665.28125,330198.75,330112.125,330284.6875,330393.5625,306871.9375,0.3984375,0.723876953125,0.552490234375,-1.9836424589157104,-0.3356933295726776,0.6713866591453552,66.66667175292969,36144.0,1.0
2059.2886518,329837.375,329997.40625,330654.1875,330188.21875,330101.5,330273.9375,330378.8125,305023.1875,0.3974609375,0.723388671875,0.552978515625,-1.9531248807907104,-0.3662109076976776,0.5798339247703552,66.66667175292969,36145.0,1.0
2059.2923989,329761.90625,329922.3125,330579.375,330113.28125,330026.03125,330198.65625,330306.0625,305220.6875,0.398193359375,0.7236328125,0.55224609375,-1.9226073026657104,-0.2136230319738388,0.7019042372703552,66.66667175292969,36146.0,1.0
2059.3042304,329757.625,329917.5,330575.0625,330108.71875,330021.8125,330194.375,330303.375,306933.90625,0.3994140625,0.724609375,0.55224609375,-1.8920897245407104,-0.1220703050494194,0.7324218153953552,66.66667175292969,36147.0,1.0
2059.3042353,329812.625,329972.375,330630.0625,330163.53125,330077.0625,330249.46875,330358.53125,307088.65625,0.397705078125,0.7236328125,0.55419921875,-1.8920897245407104,-0.0915527269244194,0.7324218153953552,66.66667175292969,36148.0,1.0
2059.3061553,329820.65625,329980.6875,330638.09375,330171.5,330084.6875,330257.21875,330362.71875,305269.78125,0.39794921875,0.72314453125,0.55224609375,-1.8920897245407104,-0.0915527269244194,0.7324218153953552,66.66667175292969,36149.0,1.0
2059.3124088,329740.625,329900.59375,330558.1875,330091.75,330004.5625,330177.40625,330283.96875,305006.09375,0.39892578125,0.72265625,0.550537109375,-1.9531248807907104,-0.1831054538488388,0.7019042372703552,66.66667175292969,36150.0,1.0
2059.3198698,329724.375,329883.96875,330542.1875,330075.75,329988.75,330161.3125,330270.28125,306639.125,0.400146484375,0.7216796875,0.55078125,-1.8920897245407104,-0.3356933295726776,0.6408690810203552,66.66667175292969,36151.0,1.0
2059.319877,329772.03125,329931.625,330589.75,330123.03125,330036.40625,330208.6875,330317.84375,307238.25,0.39794921875,0.722412109375,0.551513671875,-1.8920897245407104,-0.2746581733226776,0.6408690810203552,66.66667175292969,36152.0,1.0
2059.3198793,329795.96875,329955.65625,330613.4375,330146.90625,330060.1875,330232.1875,330338.9375,305583.84375,0.39794921875,0.723876953125,0.55126953125,-1.9531248807907104,-0.3662109076976776,0.6103515028953552,66.66667175292969,36153.0,1.0
2059.3224094,329723.21875,329882.96875,330540.375,330074.75,329987.3125,330159.6875,330266.1875,304847.5,0.401123046875,0.724365234375,0.553466796875,-1.8920897245407104,-0.2746581733226776,0.5798339247703552,66.66667175292969,36154.0,1.0
2059.3249169,329695.40625,329855.09375,330513.125,330046.78125,329959.5,330131.96875,330241.40625,306315.28125,0.400634765625,0.72412109375,0.552490234375,-1.8920897245407104,-0.2441406100988388,0.7324218153953552,66.66667175292969,36155.0,1.0
2059.3336598,329736.15625,329895.84375,330553.71875,330087.34375,330000.46875,330172.90625,330282.625,307315.84375,0.39990234375,0.722412109375,0.5517578125,-2.044677495956421,-0.3356933295726776,0.6713866591453552,66.66667175292969,36156.0,1.0
2059.3380025,329775.40625,329935.09375,330592.96875,330126.4375,330039.78125,330212.09375,330319.28125,305968.125,0.3994140625,0.72412109375,0.552734375,-1.9836424589157104,-0.2746581733226776,0.6713866591453552,66.66667175292969,36157.0,1.0
2059.3380112,329746.71875,329906.5,330564.0625,330097.71875,330011.09375,330183.03125,330289.0625,304862.625,0.399658203125,0.722900390625,0.55126953125,-1.9531248807907104,-0.3356933295726776,0.6408690810203552,66.66667175292969,36158.0,1.0
2059.3436515,329720.25,329880.03125,330537.875,330071.53125,329984.4375,330156.84375,330265.71875,305945.5,0.399169921875,0.72216796875,0.55029296875,-1.8005369901657104,-0.2746581733226776,0.5798339247703552,66.66667175292969,36159.0,1.0
2059.3529908,329750.21875,329910.0625,330567.65625,330101.5,330014.5,330186.78125,330296.125,307269.8125,0.39892578125,0.724365234375,0.549072265625,-1.8615721464157104,-0.2441406100988388,0.5798339247703552,66.66667175292969,36160.0,1.0
2059.3529977,329797.40625,329957.1875,330614.875,330148.5,330061.34375,330234.15625,330342.15625,306198.625,0.3994140625,0.72412109375,0.550048828125,-1.8920897245407104,-0.1831054538488388,0.6713866591453552,66.66667175292969,36161.0,1.0
2059.3548993,329750.90625,329911.0625,330568.625,330102.125,330015.3125,330187.6875,330293.34375,304647.21875,0.399658203125,0.7236328125,0.551025390625,-1.9226073026657104,-0.1220703050494194,0.6713866591453552,66.66667175292969,36162.0,1.0
2059.3611536,329691.28125,329851.0625,330508.8125,330042.375,329955.40625,330127.5,330236.59375,305586.8125,0.3994140625,0.7255859375,0.5498046875,-2.014159917831421,-0.2136230319738388,0.7019042372703552,66.66667175292969,36163.0,1.0
2059.3654937,329708.90625,329868.9375,330526.625,330060.0,329972.65625,330145.375,330254.8125,307171.53125,0.39990234375,0.7255859375,0.554931640625,-1.9226073026657104,-0.2746581733226776,0.6408690810203552,66.66667175292969,36164.0,1.0
2059.3655007,329760.3125,329919.71875,330577.5,330111.0625,330024.25,330196.4375,330305.4375,306512.53125,0.39990234375,0.724365234375,0.552490234375,-1.8615721464157104,-0.2746581733226776,0.5798339247703552,66.66667175292969,36165.0,1.0
2059.3674139,329734.65625,329894.25,330551.84375,330085.65625,329998.75,330171.21875,330276.53125,304758.71875,0.400390625,0.722412109375,0.55224609375,-1.8920897245407104,-0.3051757514476776,0.6408690810203552,66.66667175292969,36166.0,1.0
2059.3811558,329665.34375,329824.6875,330483.0625,330016.46875,329929.28125,330102.03125,330210.03125,305330.03125,0.399658203125,0.723388671875,0.552734375,-1.8005369901657104,-0.2136230319738388,0.6713866591453552,66.66667175292969,36167.0,1.0
2059.3836234,329672.40625,329831.75,330490.3125,330023.78125,329936.25,330108.90625,330218.25,307021.15625,0.400146484375,0.725341796875,0.555419921875,-1.9226073026657104,-0.2441406100988388,0.6713866591453552,66.66667175292969,36168.0,1.0
2059.3860034,329727.0625,329886.1875,330544.5,330078.0625,329990.71875,330163.28125,330272.34375,306778.875,0.3994140625,0.723388671875,0.551513671875,-1.9531248807907104,-0.2746581733226776,0.6103515028953552,66.66667175292969,36169.0,1.0
2059.3924135,329718.375,329877.96875,330535.46875,330069.03125,329981.78125,330155.125,330260.0,304927.96875,0.397216796875,0.72265625,0.5517578125,-1.9836424589157104,-0.2746581733226776,0.6713866591453552,66.66667175292969,36170.0,1.0
2059.394905,329640.9375,329800.53125,330458.40625,329992.0625,329904.875,330077.71875,330185.09375,305077.90625,0.39697265625,0.721923828125,0.553466796875,-1.8920897245407104,-0.1831054538488388,0.7019042372703552,66.66667175292969,36171.0,1.0
2059.398648,329637.09375,329796.6875,330455.1875,329988.5625,329901.125,330073.40625,330183.125,306782.53125,0.39794921875,0.720947265625,0.550048828125,-1.9836424589157104,-0.2746581733226776,0.7324218153953552,66.66667175292969,36172.0,1.0
2059.4054815,329689.0625,329848.5625,330506.40625,330040.15625,329952.625,330125.53125,330234.34375,306993.625,0.396728515625,0.722412109375,0.552001953125,-1.9836424589157104,-0.3356933295726776,0.6713866591453552,66.66667175292969,36173.0,1.0
2059.4054883,329698.78125,329857.75,330515.8125,330049.71875,329962.46875,330135.09375,330240.6875,305197.875,0.399169921875,0.7216796875,0.551025390625,-1.9531248807907104,-0.3662109076976776,0.6713866591453552,66.66667175292969,36174.0,1.0
2059.4136552,329623.875,329783.09375,330440.96875,329974.71875,329887.53125,330060.0,330166.9375,304875.21875,0.3984375,0.722900390625,0.550537109375,-1.9531248807907104,-0.2441406100988388,0.6713866591453552,66.66667175292969,36175.0,1.0
2059.4167386,329608.9375,329768.625,330425.9375,329960.125,329872.96875,330045.6875,330154.5,306484.8125,0.39794921875,0.722900390625,0.550537109375,-1.9531248807907104,-0.2746581733226776,0.7324218153953552,66.66667175292969,36176.0,1.0
2059.4167449,329655.6875,329815.28125,330473.0625,330006.96875,329919.4375,330092.28125,330201.625,307135.6875,0.398681640625,0.721435546875,0.552978515625,-2.014159917831421,-0.2441406100988388,0.7019042372703552,66.66667175292969,36177.0,1.0
2059.4186663,329687.0,329846.3125,330503.90625,330037.75,329950.3125,330123.3125,330229.34375,305580.46875,0.400390625,0.721923828125,0.55322265625,-1.9531248807907104,-0.2441406100988388,0.6103515028953552,66.66667175292969,36178.0,1.0
2059.4304906,329648.5625,329807.875,330465.5625,329999.21875,329912.3125,330084.84375,330191.0625,304809.9375,0.398681640625,0.72265625,0.550537109375,-2.075195074081421,-0.2136230319738388,0.5493163466453552,66.66667175292969,36179.0,1.0
2059.4304976,329631.375,329790.96875,330448.90625,329982.3125,329895.65625,330068.0625,330177.21875,306120.46875,0.3984375,0.7216796875,0.54931640625,-2.014159917831421,-0.2441406100988388,0.5798339247703552,66.66667175292969,36180.0,1.0
2059.4361523,329670.90625,329830.5,330488.53125,330021.8125,329934.84375,330107.375,330217.09375,307162.4375,0.398193359375,0.722900390625,0.55029296875,-2.014159917831421,-0.1831054538488388,0.6408690810203552,66.66667175292969,36181.0,1.0
2059.4386587,329705.78125,329865.53125,330523.3125,330056.6875,329969.96875,330142.4375,330250.09375,305791.5625,0.399169921875,0.720947265625,0.5517578125,-2.044677495956421,-0.2136230319738388,0.6103515028953552,66.66667175292969,36182.0,1.0
2059.4412701,329644.4375,329804.125,330461.625,329995.625,329908.53125,330081.09375,330186.5,304549.15625,0.39794921875,0.722412109375,0.5498046875,-1.9836424589157104,-0.1831054538488388,0.7324218153953552,66.66667175292969,36183.0,1.0
2059.4436603,329597.9375,329757.71875,330415.03125,329949.125,329861.78125,330034.53125,330143.15625,305761.40625,0.3994140625,0.72119140625,0.55078125,-1.9836424589157104,-0.2136230319738388,0.7019042372703552,66.66667175292969,36184.0,1.0
2059.4461676,329626.1875,329786.0625,330443.65625,329977.375,329890.40625,330062.9375,330172.03125,307144.28125,0.39990234375,0.72119140625,0.553466796875,-2.105712652206421,-0.1831054538488388,0.7019042372703552,66.66667175292969,36185.0,1.0
2059.4549,329671.71875,329831.21875,330489.34375,330022.625,329935.90625,330108.375,330216.5625,306131.90625,0.39990234375,0.720947265625,0.554931640625,-1.9836424589157104,-0.1525878757238388,0.6713866591453552,66.66667175292969,36186.0,1.0
2059.4579831,329629.5,329789.1875,330446.6875,329979.96875,329893.0,330065.8125,330170.96875,304574.375,0.398193359375,0.722900390625,0.55224609375,-1.9226073026657104,-0.1831054538488388,0.6713866591453552,66.66667175292969,36187.0,1.0
2059.4579885,329571.46875,329730.625,330388.5625,329922.03125,329835.0625,330007.6875,330116.15625,305469.78125,0.3994140625,0.723876953125,0.55078125,-1.8920897245407104,-0.1831054538488388,0.6713866591453552,66.66667175292969,36188.0,1.0
2059.4636496,329588.125,329747.0,330405.1875,329938.75,329851.78125,330024.3125,330134.03125,307060.78125,0.398193359375,0.72412109375,0.552001953125,-1.9531248807907104,-0.2136230319738388,0.7324218153953552,66.66667175292969,36189.0,1.0
2059.4729837,329638.28125,329797.40625,330455.625,329989.0,329902.03125,330074.75,330183.375,306439.46875,0.3974609375,0.721923828125,0.552734375,-1.8920897245407104,-0.2136230319738388,0.7019042372703552,66.66667175292969,36190.0,1.0
2059.4729907,329617.15625,329776.75,330434.53125,329968.0,329881.1875,330053.90625,330158.96875,304672.875,0.400146484375,0.724365234375,0.553466796875,-1.8920897245407104,-0.2441406100988388,0.6713866591453552,66.66667175292969,36191.0,1.0
2059.4749008,329548.875,329708.4375,330366.03125,329899.78125,329813.0625,329985.4375,330093.625,305183.03125,0.399658203125,0.722900390625,0.551513671875,-1.8920897245407104,-0.3051757514476776,0.5493163466453552,66.66667175292969,36192.0,1.0
2059.4836535,329554.9375,329714.34375,330372.375,329906.03125,329818.96875,329991.4375,330100.5,306879.28125,0.399169921875,0.721435546875,0.55029296875,-1.8920897245407104,-0.3051757514476776,0.5798339247703552,66.66667175292969,36193.0,1.0
2059.4865833,329606.96875,329765.84375,330424.0625,329957.53125,329870.625,330043.09375,330151.90625,306694.1875,0.398193359375,0.722900390625,0.5498046875,-1.8920897245407104,-0.1525878757238388,0.6408690810203552,66.66667175292969,36194.0,1.0
2059.4865892,329601.0,329760.125,330417.90625,329951.28125,329864.90625,330037.46875,330142.6875,304839.71875,0.397216796875,0.7236328125,0.549560546875,-1.9836424589157104,-0.3356933295726776,0.7019042372703552,66.66667175292969,36195.0,1.0
2059.4936665,329524.4375,329683.96875,330341.53125,329874.9375,329788.65625,329960.84375,330068.3125,304930.28125,0.398193359375,0.72314453125,0.553466796875,-2.044677495956421,-0.2746581733226776,0.6713866591453552,66.66667175292969,36196.0,1.0
2059.4961513,329520.875,329680.46875,330338.0625,329871.96875,329785.15625,329957.625,330066.96875,306631.15625,0.3974609375,0.72314453125,0.552734375,-1.9531248807907104,-0.2746581733226776,0.6103515028953552,66.66667175292969,36197.0,1.0
2059.4986471,329572.5625,329732.5,330390.0,329924.09375,329837.28125,330009.75,330118.84375,306893.59375,0.397705078125,0.722900390625,0.55078125,-1.8920897245407104,-0.3051757514476776,0.6408690810203552,66.66667175292969,36198.0,1.0
2059.5024069,329585.0625,329744.84375,330402.4375,329935.90625,329849.34375,330021.75,330127.0625,305111.4375,0.39892578125,0.72216796875,0.55078125,-1.9226073026657104,-0.2441406100988388,0.6713866591453552,66.66667175292969,36199.0,1.0
2059.5161531,329511.03125,329670.71875,330328.21875,329861.78125,329775.25,329947.4375,330053.84375,304730.8125,0.398681640625,0.722900390625,0.553466796875,-1.9836424589157104,-0.1525878757238388,0.6713866591453552,66.66667175292969,36200.0,1.0
2059.5279695,329492.8125,329652.84375,330310.34375,329843.90625,329756.90625,329929.46875,330038.1875,306326.90625,0.3974609375,0.723388671875,0.552001953125,-1.9226073026657104,-0.1831054538488388,0.6713866591453552,66.66667175292969,36201.0,1.0
2059.5279763,329539.375,329699.15625,330356.65625,329890.3125,329803.21875,329975.78125,330085.125,307025.90625,0.39892578125,0.724365234375,0.5517578125,-1.9226073026657104,-0.2136230319738388,0.7019042372703552,66.66667175292969,36202.0,1.0
2059.5279786,329566.125,329725.4375,330383.46875,329917.21875,329830.03125,330002.875,330109.4375,305418.375,0.39794921875,0.724365234375,0.55029296875,-1.8920897245407104,-0.2136230319738388,0.7019042372703552,66.66667175292969,36203.0,1.0
2059.5279808,329496.75,329656.3125,330314.09375,329847.9375,329761.1875,329933.75,330039.53125,304570.15625,0.3994140625,0.723876953125,0.553955078125,-1.8920897245407104,-0.2136230319738388,0.6713866591453552,66.66667175292969,36204.0,1.0
2059.5298982,329464.09375,329623.25,330281.09375,329814.9375,329728.03125,329900.6875,330009.5,306000.21875,0.397705078125,0.722412109375,0.55322265625,-1.8615721464157104,-0.2746581733226776,0.7019042372703552,66.66667175292969,36205.0,1.0
2059.5324132,329498.625,329657.40625,330315.71875,329849.28125,329762.375,329934.90625,330044.34375,307103.875,0.397705078125,0.722412109375,0.552734375,-1.8920897245407104,-0.3051757514476776,0.6408690810203552,66.66667175292969,36206.0,1.0
2059.5349121,329540.53125,329699.6875,330357.375,329890.9375,329804.46875,329976.9375,330083.78125,305826.6875,0.399658203125,0.7216796875,0.548583984375,-1.8920897245407104,-0.2136230319738388,0.6408690810203552,66.66667175292969,36207.0,1.0
2059.5412489,329515.15625,329674.65625,330332.15625,329865.8125,329778.90625,329951.46875,330056.6875,304621.84375,0.400146484375,0.721435546875,0.552978515625,-1.9836424589157104,-0.2746581733226776,0.6408690810203552,66.66667175292969,36208.0,1.0
2059.5454802,329486.09375,329645.6875,330303.375,329836.9375,329749.9375,329922.125,330031.375,305622.9375,0.39892578125,0.72021484375,0.552978515625,-2.044677495956421,-0.1831054538488388,0.6713866591453552,66.66667175292969,36209.0,1.0
2059.5454866,329512.125,329671.625,330329.46875,329862.78125,329776.125,329948.5,330057.6875,307012.125,0.397216796875,0.72119140625,0.551025390625,-1.9226073026657104,-0.1831054538488388,0.6713866591453552,66.66667175292969,36210.0,1.0
2059.5561523,329559.15625,329718.90625,330376.3125,329909.875,329823.25,329995.90625,330103.4375,306041.09375,0.39892578125,0.7236328125,0.550048828125,-1.9226073026657104,-0.2136230319738388,0.5798339247703552,66.66667175292969,36211.0,1.0
2059.5604777,329519.96875,329679.5625,330337.15625,329870.46875,329784.1875,329956.75,330061.34375,304450.25,0.3984375,0.723388671875,0.55078125,-1.8920897245407104,-0.2441406100988388,0.6103515028953552,66.66667175292969,36212.0,1.0
2059.5604833,329459.1875,329618.59375,330276.46875,329810.1875,329723.28125,329895.59375,330004.21875,305306.78125,0.39794921875,0.72216796875,0.551025390625,-2.075195074081421,-0.1831054538488388,0.6408690810203552,66.66667175292969,36213.0,1.0
2059.5667317,329475.28125,329634.96875,330292.625,329826.28125,329739.5625,329911.84375,330021.28125,306918.25,0.3984375,0.720947265625,0.552734375,-2.014159917831421,-0.1831054538488388,0.6408690810203552,66.66667175292969,36214.0,1.0
2059.5667377,329529.0,329688.78125,330346.5625,329880.21875,329793.375,329965.84375,330074.3125,306343.46875,0.3984375,0.7236328125,0.55126953125,-2.044677495956421,-0.1831054538488388,0.6103515028953552,66.66667175292969,36215.0,1.0
2059.5724095,329506.5625,329666.4375,330323.9375,329857.40625,329770.84375,329943.40625,330048.46875,304550.5,0.39892578125,0.723388671875,0.55029296875,-1.9531248807907104,-0.1831054538488388,0.6408690810203552,66.66667175292969,36216.0,1.0
2059.5842329,329435.59375,329595.09375,330252.5,329786.25,329699.78125,329871.875,329980.0625,305026.75,0.39990234375,0.721435546875,0.548828125,-1.8920897245407104,-0.2746581733226776,0.5798339247703552,66.66667175292969,36217.0,1.0
2059.5842401,329441.03125,329600.625,330257.84375,329791.78125,329705.0625,329877.4375,329986.96875,306730.15625,0.39990234375,0.72265625,0.552734375,-1.9836424589157104,-0.2746581733226776,0.7019042372703552,66.66667175292969,36218.0,1.0
2059.5912033,329493.78125,329653.46875,330310.96875,329844.625,329757.90625,329930.09375,330039.53125,306595.40625,0.3994140625,0.722412109375,0.55517578125,-2.014159917831421,-0.2441406100988388,0.7629393935203552,66.66667175292969,36219.0,1.0
2059.5912093,329491.0,329650.4375,330308.09375,329841.40625,329754.9375,329927.21875,330032.8125,304743.96875,0.399169921875,0.7236328125,0.55126953125,-1.9531248807907104,-0.1525878757238388,0.7324218153953552,66.66667175292969,36220.0,1.0
2059.5912115,329414.40625,329573.71875,330231.5625,329765.40625,329677.96875,329850.625,329957.71875,304779.1875,0.39990234375,0.72412109375,0.552734375,-1.9531248807907104,-0.2136230319738388,0.6408690810203552,66.66667175292969,36221.0,1.0
2059.5963842,329405.71875,329565.21875,330222.90625,329756.90625,329669.75,329841.9375,329951.1875,306477.5625,0.3994140625,0.72265625,0.55224609375,-1.9531248807907104,-0.2441406100988388,0.6713866591453552,66.66667175292969,36222.0,1.0
2059.6011582,329455.4375,329615.1875,330272.875,329806.625,329720.0625,329892.1875,330001.53125,306795.21875,0.39892578125,0.7236328125,0.5556640625,-1.9836424589157104,-0.1525878757238388,0.6408690810203552,66.66667175292969,36223.0,1.0
2059.6049061,329468.40625,329628.15625,330285.5625,329819.5,329732.875,329904.53125,330010.8125,305017.375,0.398681640625,0.72314453125,0.552978515625,-1.9836424589157104,-0.1525878757238388,0.7019042372703552,66.66667175292969,36224.0,1.0
2059.6092269,329391.15625,329550.65625,330208.25,329741.875,329655.6875,329827.375,329934.125,304584.90625,0.399658203125,0.72119140625,0.5517578125,-1.9531248807907104,-0.1831054538488388,0.6103515028953552,66.66667175292969,36225.0,1.0
2059.6092327,329370.5,329530.34375,330187.9375,329721.59375,329635.0625,329807.4375,329916.59375,306177.15625,0.398193359375,0.7216796875,0.551025390625,-1.9226073026657104,-0.1220703050494194,0.5798339247703552,66.66667175292969,36226.0,1.0
2059.6224041,329416.375,329576.21875,330233.90625,329767.28125,329681.0,329852.75,329962.375,306938.09375,0.3984375,0.722412109375,0.5517578125,-1.9531248807907104,-0.1525878757238388,0.6103515028953552,66.66667175292969,36227.0,1.0
2059.6298681,329449.0,329608.9375,330266.1875,329800.0,329713.375,329885.75,329991.875,305429.1875,0.3994140625,0.72314453125,0.552734375,-1.9836424589157104,-0.1831054538488388,0.6713866591453552,66.66667175292969,36228.0,1.0
2059.6298746,329414.3125,329574.0625,330231.3125,329765.5,329678.59375,329850.96875,329956.65625,304544.0625,0.397705078125,0.724365234375,0.5546875,-2.014159917831421,-0.2136230319738388,0.7934569716453552,66.66667175292969,36229.0,1.0
2059.6298769,329394.46875,329554.03125,330211.46875,329745.75,329658.21875,329830.59375,329939.9375,305790.28125,0.39892578125,0.722412109375,0.55322265625,-2.075195074081421,-0.2136230319738388,0.7629393935203552,66.66667175292969,36230.0,1.0
2059.6329839,329430.5625,329590.15625,330247.5625,329781.9375,329694.40625,329866.875,329976.6875,306919.5,0.400390625,0.722412109375,0.55224609375,-1.9226073026657104,-0.2441406100988388,0.7934569716453552,66.66667175292969,36231.0,1.0
2059.6329897,329470.71875,329630.21875,330287.8125,329821.71875,329734.65625,329906.65625,330014.9375,305630.96875,0.39990234375,0.72265625,0.552001953125,-2.044677495956421,-0.2746581733226776,0.7019042372703552,66.66667175292969,36232.0,1.0
2059.6648951,329413.21875,329572.90625,330230.40625,329764.34375,329677.4375,329849.71875,329955.125,304308.09375,0.399169921875,0.724609375,0.5517578125,-1.9836424589157104,-0.2441406100988388,0.7629393935203552,66.66667175292969,36233.0,1.0
2059.6679806,329361.28125,329521.21875,330178.90625,329713.09375,329626.03125,329798.65625,329906.9375,305460.75,0.3984375,0.72509765625,0.55322265625,-1.8920897245407104,-0.2136230319738388,0.6713866591453552,66.66667175292969,36234.0,1.0
2059.6679866,329387.21875,329546.4375,330204.21875,329738.6875,329651.5,329823.78125,329933.03125,306898.6875,0.3984375,0.72314453125,0.552978515625,-1.8310545682907104,-0.2441406100988388,0.6713866591453552,66.66667175292969,36235.0,1.0
2059.6698999,329434.40625,329594.0,330251.34375,329785.625,329698.625,329870.5625,329978.90625,305967.78125,0.400146484375,0.722412109375,0.552978515625,-1.8615721464157104,-0.3051757514476776,0.6408690810203552,66.66667175292969,36236.0,1.0
2059.6724079,329396.15625,329556.09375,330213.34375,329747.25,329660.875,329832.625,329937.59375,304347.34375,0.39892578125,0.72314453125,0.552001953125,-1.8615721464157104,-0.3356933295726776,0.6713866591453552,66.66667175292969,36237.0,1.0
2059.6749133,329333.84375,329493.59375,330151.28125,329684.9375,329598.3125,329770.40625,329879.03125,305164.71875,0.39990234375,0.723388671875,0.55322265625,-1.9531248807907104,-0.3356933295726776,0.6713866591453552,66.66667175292969,36238.0,1.0
2059.677396,329349.65625,329509.53125,330167.03125,329700.59375,329614.03125,329786.25,329895.75,306791.375,0.399658203125,0.724609375,0.552978515625,-1.9531248807907104,-0.3662109076976776,0.7019042372703552,66.66667175292969,36239.0,1.0
2059.6799002,329403.3125,329563.15625,330220.3125,329754.0625,329667.25,329839.25,329948.0625,306268.1875,0.397216796875,0.7216796875,0.5546875,-1.9531248807907104,-0.2441406100988388,0.5798339247703552,66.66667175292969,36240.0,1.0
2059.6824077,329383.0,329542.4375,330199.9375,329733.75,329647.03125,329818.96875,329924.09375,304460.09375,0.396728515625,0.724365234375,0.553955078125,-1.9836424589157104,-0.3051757514476776,0.6408690810203552,66.66667175292969,36241.0,1.0
2059.6849133,329308.8125,329468.46875,330126.15625,329660.34375,329573.1875,329745.5625,329853.03125,304883.71875,0.396728515625,0.722900390625,0.55322265625,-2.044677495956421,-0.2746581733226776,0.5798339247703552,66.66667175292969,36242.0,1.0
2059.6879964,329314.25,329474.125,330131.0,329665.4375,329578.0,329750.65625,329859.71875,306593.4375,0.39794921875,0.7216796875,0.550048828125,-2.044677495956421,-0.3051757514476776,0.6713866591453552,66.66667175292969,36243.0,1.0
