Time,FZ,C3,CZ,C4,PZ,PO7,OZ,PO8,AccX,AccY,AccZ,Gyro1,Gyro2,Gyro3,Battery,Counter,Validation
2191.4314298,-6822.4677734375,5192.84716796875,-217225.265625,-210483.890625,-192381.390625,-223607.046875,-201652.265625,-299464.125,0.398193359375,0.722412109375,0.552734375,-1.9836424589157104,-0.2136230319738388,0.7324218153953552,66.66667175292969,69205.0,1.0
2191.4364344,18799.962890625,7185.99658203125,-216040.96875,-209572.375,-191203.0,-227549.984375,-206468.4375,-298999.65625,0.396728515625,0.72314453125,0.55322265625,-1.9226073026657104,-0.2136230319738388,0.6713866591453552,66.66667175292969,69206.0,1.0
2191.4388746,21723.572265625,11124.642578125,-216161.3125,-209593.65625,-190211.921875,-228282.046875,-207082.3125,-299085.125,0.399169921875,0.724609375,0.5517578125,-2.075195074081421,-0.2746581733226776,0.7019042372703552,66.66667175292969,69207.0,1.0
2191.4476301,-3898.859619140625,9556.98046875,-217390.75,-210536.546875,-191292.234375,-224373.078125,-202266.40625,-299593.21875,0.399169921875,0.7236328125,0.55224609375,-2.044677495956421,-0.3356933295726776,0.6713866591453552,66.66667175292969,69208.0,1.0
2191.4507089,-9006.94921875,5443.365234375,-217398.53125,-210614.78125,-192412.859375,-223253.796875,-201168.296875,-299567.84375,0.3984375,0.72314453125,0.55224609375,-1.9836424589157104,-0.3051757514476776,0.6408690810203552,66.66667175292969,69209.0,1.0
2191.4507167,15159.7587890625,6460.90625,-216225.25,-209733.3125,-191505.640625,-226907.140625,-205703.03125,-299109.0,0.399169921875,0.720947265625,0.5517578125,-2.014159917831421,-0.2746581733226776,0.6713866591453552,66.66667175292969,69210.0,1.0
2191.4614371,24337.83203125,10655.255859375,-216023.265625,-209500.140625,-190261.28125,-228631.0,-207541.328125,-299053.46875,0.400146484375,0.72119140625,0.552978515625,-1.9226073026657104,-0.2746581733226776,0.6408690810203552,66.66667175292969,69211.0,1.0
2191.4644769,819.5938110351562,10128.4697265625,-217211.671875,-210392.15625,-191037.15625,-225122.40625,-203143.03125,-299552.1875,0.398681640625,0.721435546875,0.5556640625,-1.9226073026657104,-0.3051757514476776,0.6713866591453552,66.66667175292969,69212.0,1.0
2191.4644847,-10588.111328125,5709.8876953125,-217534.515625,-210712.40625,-192372.078125,-223053.34375,-200867.1875,-299656.53125,0.39794921875,0.720703125,0.552734375,-1.9226073026657104,-0.1831054538488388,0.7019042372703552,66.66667175292969,69213.0,1.0
2191.4664329,10577.5615234375,5755.57470703125,-216441.703125,-209912.578125,-191789.15625,-226186.875,-204832.828125,-299229.4375,0.3974609375,0.721435546875,0.550537109375,-1.9226073026657104,-0.1525878757238388,0.7019042372703552,66.66667175292969,69214.0,1.0
2191.475131,25364.58203125,10042.818359375,-215931.453125,-209444.96875,-190378.484375,-228799.796875,-207787.546875,-299041.15625,0.397705078125,0.722900390625,0.550537109375,-1.9226073026657104,-0.2441406100988388,0.7019042372703552,66.66667175292969,69215.0,1.0
2191.4782436,5435.31884765625,10609.5693359375,-216999.859375,-210224.515625,-190794.5,-225923.21875,-204099.59375,-299495.15625,0.39794921875,0.724853515625,0.552978515625,-1.9836424589157104,-0.2136230319738388,0.6408690810203552,66.66667175292969,69216.0,1.0
2191.4782491,-11537.8818359375,6378.919921875,-217626.515625,-210772.578125,-192261.84375,-223020.796875,-200768.390625,-299728.15625,0.3984375,0.723388671875,0.5537109375,-1.9226073026657104,-0.1831054538488388,0.6408690810203552,66.66667175292969,69217.0,1.0
2191.5026901,5829.603515625,5327.2255859375,-216676.5625,-210102.03125,-192042.53125,-225456.0625,-203935.453125,-299356.21875,0.397705078125,0.722900390625,0.55517578125,-1.9836424589157104,-0.2136230319738388,0.7019042372703552,66.66667175292969,69218.0,1.0
2191.5051308,25361.18359375,9312.720703125,-215893.359375,-209434.328125,-190558.375,-228777.359375,-207804.53125,-299051.25,0.39697265625,0.72216796875,0.552001953125,-1.9226073026657104,-0.2136230319738388,0.7324218153953552,66.66667175292969,69219.0,1.0
2191.5076301,10257.484375,10919.6328125,-216775.1875,-210051.59375,-190587.078125,-226713.484375,-205059.734375,-299431.3125,0.39794921875,0.72216796875,0.55517578125,-2.014159917831421,-0.2441406100988388,0.7324218153953552,66.66667175292969,69220.0,1.0
2191.5101441,-11224.599609375,7164.986328125,-217664.0625,-210790.453125,-192088.75,-223165.109375,-200886.046875,-299778.3125,0.398681640625,0.720947265625,0.5546875,-2.014159917831421,-0.3662109076976776,0.6713866591453552,66.66667175292969,69221.0,1.0
2191.5126331,1520.455078125,5150.19970703125,-216908.84375,-210284.5,-192250.765625,-224773.796875,-203083.484375,-299479.0625,0.397705078125,0.72314453125,0.552734375,-1.9531248807907104,-0.3051757514476776,0.6713866591453552,66.66667175292969,69222.0,1.0
2191.5151295,24539.712890625,8497.955078125,-215915.265625,-209471.703125,-190791.28125,-228569.21875,-207592.8125,-299087.71875,0.3984375,0.7236328125,0.552001953125,-1.8920897245407104,-0.3662109076976776,0.6103515028953552,66.66667175292969,69223.0,1.0
2191.5176442,15213.3134765625,11063.7568359375,-216558.46875,-209890.578125,-190430.078125,-227441.078125,-205958.546875,-299371.40625,0.399658203125,0.72265625,0.554931640625,-1.9226073026657104,-0.4272460639476776,0.6713866591453552,66.66667175292969,69224.0,1.0
2191.5201353,-9421.9755859375,7963.748046875,-217651.828125,-210771.0625,-191864.171875,-223480.34375,-201217.46875,-299811.5625,0.3974609375,0.72119140625,0.5546875,-1.9226073026657104,-0.3662109076976776,0.7019042372703552,66.66667175292969,69225.0,1.0
2191.5226363,-2402.902099609375,5073.7568359375,-217140.40625,-210464.03125,-192394.796875,-224153.3125,-202303.0625,-299605.21875,0.39697265625,0.7216796875,0.551025390625,-1.8005369901657104,-0.3051757514476776,0.6713866591453552,66.66667175292969,69226.0,1.0
2191.5257073,22444.99609375,7692.75537109375,-216006.109375,-209564.0625,-191053.6875,-228152.84375,-207132.015625,-299156.125,0.3994140625,0.7216796875,0.55322265625,-1.9836424589157104,-0.3662109076976776,0.7324218153953552,66.66667175292969,69227.0,1.0
2191.5257146,19398.900390625,10993.482421875,-216367.84375,-209754.234375,-190335.75,-228037.96875,-206715.375,-299323.125,0.3984375,0.721435546875,0.55517578125,-1.9836424589157104,-0.2136230319738388,0.8239745497703552,66.66667175292969,69228.0,1.0
2191.527626,-6427.37841796875,8633.5849609375,-217567.953125,-210695.25,-191613.46875,-223992.203125,-201792.453125,-299811.65625,0.397705078125,0.72119140625,0.555419921875,-2.014159917831421,-0.2441406100988388,0.7629393935203552,66.66667175292969,69229.0,1.0
2191.5394768,-5842.47802734375,4894.6748046875,-217335.671875,-210606.546875,-192483.125,-223680.984375,-201684.359375,-299707.21875,0.396728515625,0.722900390625,0.552978515625,-1.9836424589157104,-0.3356933295726776,0.7019042372703552,66.66667175292969,69230.0,1.0
2191.5394841,18914.94140625,6822.02099609375,-216148.4375,-209691.921875,-191345.78125,-227592.09375,-206481.765625,-299240.4375,0.39892578125,0.72265625,0.55517578125,-1.9836424589157104,-0.2441406100988388,0.7324218153953552,66.66667175292969,69231.0,1.0
2191.5419642,22290.591796875,10714.443359375,-216200.5625,-209638.265625,-190316.984375,-228507.796875,-207321.46875,-299278.96875,0.396240234375,0.723388671875,0.55078125,-1.9226073026657104,-0.3051757514476776,0.7934569716453552,66.66667175292969,69232.0,1.0
2191.5419719,-2997.011474609375,9345.17578125,-217425.4375,-210574.984375,-191345.78125,-224642.28125,-202543.46875,-299782.5,0.398193359375,0.724609375,0.554931640625,-2.014159917831421,-0.2441406100988388,0.7629393935203552,66.66667175292969,69233.0,1.0
2191.5501177,-8685.6201171875,5233.080078125,-217496.96875,-210720.984375,-192495.828125,-223348.203125,-201230.078125,-299797.15625,0.39794921875,0.7236328125,0.555419921875,-1.9226073026657104,-0.3662109076976776,0.7324218153953552,66.66667175292969,69234.0,1.0
2191.5532072,14762.791015625,6150.12744140625,-216335.578125,-209851.78125,-191637.96875,-226924.75,-205687.46875,-299345.40625,0.39794921875,0.72119140625,0.553955078125,-1.8920897245407104,-0.3356933295726776,0.7629393935203552,66.66667175292969,69235.0,1.0
2191.5532144,24336.40234375,10305.3173828125,-216075.75,-209558.703125,-190369.734375,-228814.90625,-207734.625,-299253.65625,0.398681640625,0.721923828125,0.55078125,-1.9531248807907104,-0.2746581733226776,0.8239745497703552,66.66667175292969,69236.0,1.0
2191.5551348,1302.3021240234375,9975.0478515625,-217247.078125,-210430.6875,-191085.078125,-225394.640625,-203431.8125,-299740.5625,0.3984375,0.721923828125,0.5498046875,-1.9531248807907104,-0.1831054538488388,0.6713866591453552,66.66667175292969,69237.0,1.0
2191.5688851,-10500.58203125,5822.89794921875,-217628.390625,-210809.859375,-192440.125,-223168.671875,-200959.265625,-299879.25,0.3994140625,0.72265625,0.5537109375,-1.9836424589157104,-0.1525878757238388,0.6408690810203552,66.66667175292969,69238.0,1.0
2191.5719593,10440.4111328125,5649.98486328125,-216559.984375,-210036.40625,-191917.359375,-226196.265625,-204806.890625,-299467.25,0.398681640625,0.72119140625,0.553466796875,-2.014159917831421,-0.2441406100988388,0.7019042372703552,66.66667175292969,69239.0,1.0
2191.5719665,25685.375,9689.2138671875,-215999.21875,-209519.546875,-190495.609375,-228946.609375,-207938.640625,-299249.46875,0.3974609375,0.722412109375,0.553955078125,-2.014159917831421,-0.2746581733226776,0.7324218153953552,66.66667175292969,69240.0,1.0
2191.5738752,6453.9326171875,10423.87109375,-217037.140625,-210266.890625,-190845.375,-226192.25,-204391.15625,-299683.875,0.39794921875,0.7216796875,0.55126953125,-2.014159917831421,-0.2746581733226776,0.6103515028953552,66.66667175292969,69241.0,1.0
2191.5857076,-11022.8974609375,6339.04443359375,-217715.125,-210864.046875,-192317.640625,-223156.25,-200888.09375,-299945.3125,0.398681640625,0.721923828125,0.551513671875,-1.9836424589157104,-0.1831054538488388,0.7934569716453552,66.66667175292969,69242.0,1.0
2191.5857142,5670.2802734375,5126.86474609375,-216799.328125,-210228.71875,-192161.890625,-225457.140625,-203900.3125,-299592.59375,0.3974609375,0.722900390625,0.55078125,-2.014159917831421,-0.1525878757238388,0.7934569716453552,66.66667175292969,69243.0,1.0
2191.5882093,25437.26953125,8989.3359375,-215973.828125,-209521.78125,-190679.25,-228879.109375,-207904.046875,-299263.84375,0.3984375,0.7216796875,0.55078125,-1.9836424589157104,-0.2136230319738388,0.6713866591453552,66.66667175292969,69244.0,1.0
2191.588217,11139.5732421875,10735.8115234375,-216816.40625,-210099.609375,-190645.546875,-226966.78125,-205338.0625,-299622.375,0.397216796875,0.721923828125,0.55419921875,-1.9836424589157104,-0.3051757514476776,0.6713866591453552,66.66667175292969,69245.0,1.0
2191.6014354,-10710.2412109375,7147.10498046875,-217747.671875,-210876.296875,-192138.109375,-223328.71875,-201043.125,-299992.78125,0.39990234375,0.72412109375,0.5517578125,-1.9836424589157104,-0.2746581733226776,0.6408690810203552,66.66667175292969,69246.0,1.0
2191.6044742,1278.9669189453125,5018.86083984375,-217036.703125,-210413.609375,-192359.921875,-224774.96875,-203049.875,-299716.53125,0.39990234375,0.722900390625,0.553955078125,-1.9531248807907104,-0.3051757514476776,0.7019042372703552,66.66667175292969,69247.0,1.0
2191.6044804,24382.71484375,8191.4677734375,-216014.6875,-209575.59375,-190918.5,-228624.828125,-207639.484375,-299309.53125,0.399169921875,0.722900390625,0.552734375,-1.9226073026657104,-0.2746581733226776,0.7934569716453552,66.66667175292969,69248.0,1.0
2191.6157056,15936.9736328125,10843.63671875,-216605.40625,-209943.421875,-190497.046875,-227668.359375,-206210.3125,-299563.71875,0.398681640625,0.723388671875,0.552001953125,-1.8920897245407104,-0.3051757514476776,0.7019042372703552,66.66667175292969,69249.0,1.0
2191.6157127,-8815.70703125,7867.90380859375,-217720.03125,-210841.25,-191907.703125,-223677.3125,-201415.953125,-300013.8125,0.399169921875,0.721923828125,0.54833984375,-1.9531248807907104,-0.2746581733226776,0.6408690810203552,66.66667175292969,69250.0,1.0
2191.6194769,-2947.65869140625,4792.3037109375,-217263.796875,-210585.265625,-192496.71875,-224160.109375,-202272.296875,-299831.78125,0.3994140625,0.720458984375,0.55029296875,-1.9531248807907104,-0.2136230319738388,0.6408690810203552,66.66667175292969,69251.0,1.0
2191.6194843,21708.55078125,7403.0771484375,-216113.75,-209674.484375,-191186.109375,-228169.484375,-207132.1875,-299375.875,0.39892578125,0.72216796875,0.55078125,-1.8920897245407104,-0.2746581733226776,0.5493163466453552,66.66667175292969,69252.0,1.0
2191.6332079,19620.00390625,10795.8935546875,-216414.609375,-209808.6875,-190412.28125,-228254.328125,-206954.1875,-299512.9375,0.397705078125,0.7236328125,0.5517578125,-1.8920897245407104,-0.3051757514476776,0.7019042372703552,66.66667175292969,69253.0,1.0
2191.6332152,-6148.4287109375,8665.861328125,-217628.03125,-210759.171875,-191651.5625,-224215.453125,-202024.109375,-300009.6875,0.39697265625,0.723388671875,0.552490234375,-1.9531248807907104,-0.2441406100988388,0.7019042372703552,66.66667175292969,69254.0,1.0
2191.6357078,-6148.33935546875,5057.84228515625,-217449.140625,-210720.09375,-192568.875,-223733.015625,-201707.96875,-299932.4375,0.398193359375,0.72265625,0.551025390625,-1.9836424589157104,-0.3051757514476776,0.6713866591453552,66.66667175292969,69255.0,1.0
2191.6357153,18635.365234375,6668.50927734375,-216264.5,-209811.0,-191479.625,-227607.28125,-206471.125,-299469.75,0.400390625,0.721923828125,0.552001953125,-1.8920897245407104,-0.2136230319738388,0.5798339247703552,66.66667175292969,69256.0,1.0
2191.6469563,22942.994140625,10513.009765625,-216261.625,-209707.828125,-190406.46875,-228694.484375,-207524.15625,-299480.5,0.398681640625,0.722412109375,0.5517578125,-1.8920897245407104,-0.1525878757238388,0.6103515028953552,66.66667175292969,69257.0,1.0
2191.6469631,-1989.394775390625,9329.529296875,-217485.53125,-210640.34375,-191385.390625,-224889.3125,-202806.859375,-299984.9375,0.39892578125,0.72216796875,0.5517578125,-1.9531248807907104,-0.2441406100988388,0.5493163466453552,66.66667175292969,69258.0,1.0
2191.6607053,-8602.9189453125,5186.23095703125,-217613.109375,-210835.703125,-192573.875,-223421.15625,-201278.0,-300025.78125,0.3974609375,0.72265625,0.554443359375,-1.9531248807907104,-0.1831054538488388,0.6103515028953552,66.66667175292969,69259.0,1.0
2191.6607123,14301.98828125,5936.9814453125,-216464.3125,-209980.875,-191770.640625,-226913.046875,-205645.53125,-299581.0625,0.396484375,0.723388671875,0.5537109375,-1.9531248807907104,-0.2746581733226776,0.6408690810203552,66.66667175292969,69260.0,1.0
2191.6632011,24665.955078125,10091.0087890625,-216147.453125,-209637.640625,-190470.484375,-228963.859375,-207895.46875,-299459.84375,0.39892578125,0.72216796875,0.55224609375,-1.9531248807907104,-0.2746581733226776,0.6408690810203552,66.66667175292969,69261.0,1.0
2191.6632064,2210.766357421875,9940.08984375,-217298.75,-210489.96875,-191124.40625,-225646.140625,-203706.125,-299937.28125,0.39892578125,0.719970703125,0.553955078125,-1.9836424589157104,-0.3051757514476776,0.7324218153953552,66.66667175292969,69262.0,1.0
2191.6719551,-10454.8056640625,5833.26904296875,-217735.140625,-210916.34375,-192503.875,-223262.375,-201034.015625,-300101.59375,0.399169921875,0.722412109375,0.55322265625,-2.044677495956421,-0.3051757514476776,0.7629393935203552,66.66667175292969,69263.0,1.0
2191.6719618,9874.6435546875,5505.9501953125,-216691.40625,-210167.734375,-192042.796875,-226169.890625,-204746.1875,-299702.125,0.39794921875,0.721923828125,0.54931640625,-1.9531248807907104,-0.1831054538488388,0.7019042372703552,66.66667175292969,69264.0,1.0
2191.6744749,25811.169921875,9464.0869140625,-216078.890625,-209607.0625,-190604.875,-229055.953125,-208053.71875,-299458.3125,0.3994140625,0.723388671875,0.551513671875,-1.9531248807907104,-0.2136230319738388,0.7324218153953552,66.66667175292969,69265.0,1.0
2191.6744826,7365.615234375,10353.865234375,-217085.609375,-210324.375,-190889.0,-226439.359375,-204664.734375,-299878.34375,0.399169921875,0.72216796875,0.552001953125,-2.014159917831421,-0.2746581733226776,0.7019042372703552,66.66667175292969,69266.0,1.0
2191.6876179,-10833.98046875,6345.48193359375,-217812.75,-210961.40625,-192371.546875,-223281.515625,-201002.28125,-300163.1875,0.3984375,0.722900390625,0.55078125,-2.014159917831421,-0.2136230319738388,0.6408690810203552,66.66667175292969,69267.0,1.0
2191.6925525,5095.48291015625,4987.92626953125,-216928.703125,-210356.03125,-192280.71875,-225441.578125,-203850.0625,-299824.71875,0.398681640625,0.722900390625,0.55224609375,-1.9836424589157104,-0.2746581733226776,0.7324218153953552,66.66667175292969,69268.0,1.0
2191.6925597,25333.646484375,8783.6103515625,-216066.453125,-209619.765625,-190800.671875,-228957.78125,-207980.484375,-299479.6875,0.399169921875,0.72314453125,0.5517578125,-1.9836424589157104,-0.2746581733226776,0.7629393935203552,66.66667175292969,69269.0,1.0
2191.6925622,11932.61328125,10686.6376953125,-216868.890625,-210161.484375,-190697.140625,-227206.75,-205605.65625,-299819.59375,0.3984375,0.72314453125,0.552734375,-1.8920897245407104,-0.2441406100988388,0.7019042372703552,66.66667175292969,69270.0,1.0
2191.6957003,-10431.73828125,7219.8818359375,-217834.65625,-210964.265625,-192180.671875,-223484.546875,-201194.953125,-300204.59375,0.398193359375,0.722900390625,0.5517578125,-1.8920897245407104,-0.2746581733226776,0.6408690810203552,66.66667175292969,69271.0,1.0
2191.6957057,721.8719482421875,4952.9677734375,-217162.3125,-210536.09375,-192467.9375,-224773.53125,-203014.375,-299944.40625,0.398681640625,0.72119140625,0.550537109375,-1.8920897245407104,-0.3051757514476776,0.7629393935203552,66.66667175292969,69272.0,1.0
2191.7088814,24088.56640625,7997.81201171875,-216111.96875,-209677.796875,-191042.78125,-228664.53125,-207668.28125,-299524.46875,0.398681640625,0.72314453125,0.550048828125,-1.9226073026657104,-0.3051757514476776,0.6713866591453552,66.66667175292969,69273.0,1.0
2191.7119566,16612.533203125,10758.6103515625,-216660.125,-210007.34375,-190559.453125,-227883.828125,-206450.28125,-299760.25,0.39794921875,0.722900390625,0.552734375,-1.8615721464157104,-0.2136230319738388,0.7324218153953552,66.66667175292969,69274.0,1.0
2191.7119644,-8377.166015625,7943.72119140625,-217800.0625,-210923.765625,-191946.421875,-223862.203125,-201604.875,-300224.0,0.3974609375,0.7216796875,0.554443359375,-2.044677495956421,-0.1831054538488388,0.7019042372703552,66.66667175292969,69275.0,1.0
2191.7138684,-3443.06298828125,4778.44580078125,-217391.921875,-210709.28125,-192596.671875,-224171.828125,-202252.09375,-300061.53125,0.397705078125,0.72412109375,0.552978515625,-1.8615721464157104,-0.2746581733226776,0.6103515028953552,66.66667175292969,69276.0,1.0
2191.7176164,21239.701171875,7220.86572265625,-216228.28125,-209791.15625,-191318.25,-228175.109375,-207118.34375,-299599.9375,0.3984375,0.72265625,0.552734375,-1.9226073026657104,-0.1831054538488388,0.6713866591453552,66.66667175292969,69277.0,1.0
2191.7288888,20199.8984375,10684.6708984375,-216476.296875,-209879.671875,-190487.203125,-228442.53125,-207164.5625,-299712.6875,0.3984375,0.722412109375,0.55126953125,-1.9531248807907104,-0.2441406100988388,0.7019042372703552,66.66667175292969,69278.0,1.0
2191.731949,-5502.64208984375,8715.03515625,-217697.15625,-210832.65625,-191686.25,-224428.15625,-202249.328125,-300213.1875,0.39697265625,0.72314453125,0.551513671875,-2.014159917831421,-0.1525878757238388,0.7324218153953552,66.66667175292969,69279.0,1.0
2191.7319553,-6526.083984375,5046.48779296875,-217568.765625,-210835.25,-192655.0625,-223766.71875,-201713.5,-300155.78125,0.397216796875,0.719482421875,0.554443359375,-1.9531248807907104,-0.2441406100988388,0.6408690810203552,66.66667175292969,69280.0,1.0
2191.7338633,18019.798828125,6489.78466796875,-216383.578125,-209929.109375,-191611.859375,-227588.25,-206427.125,-299692.65625,0.397705078125,0.721435546875,0.55419921875,-1.9836424589157104,-0.2136230319738388,0.7324218153953552,66.66667175292969,69281.0,1.0
2191.7426176,23319.576171875,10368.169921875,-216326.453125,-209780.515625,-190493.734375,-228853.625,-207700.109375,-299679.5,0.39697265625,0.723388671875,0.55224609375,-1.9836424589157104,-0.2441406100988388,0.7629393935203552,66.66667175292969,69282.0,1.0
2191.7469655,-1272.2613525390625,9369.7626953125,-217543.8125,-210704.265625,-191418.65625,-225115.96875,-203052.734375,-300181.4375,0.397705078125,0.721923828125,0.553955078125,-1.9836424589157104,-0.2746581733226776,0.6408690810203552,66.66667175292969,69283.0,1.0
2191.7469727,-8885.1767578125,5205.7216796875,-217725.9375,-210943.890625,-192646.65625,-223480.078125,-201314.484375,-300244.1875,0.399169921875,0.722900390625,0.5546875,-1.9531248807907104,-0.3051757514476776,0.7324218153953552,66.66667175292969,69284.0,1.0
2191.7551195,13618.29296875,5777.30029296875,-216588.859375,-210102.5625,-191900.828125,-226883.09375,-205584.296875,-299804.0625,0.3955078125,0.720703125,0.5517578125,-1.9836424589157104,-0.2746581733226776,0.7019042372703552,66.66667175292969,69285.0,1.0
2191.7594736,24920.408203125,9924.9794921875,-216217.109375,-209715.4375,-190569.109375,-229093.5,-208035.203125,-299659.46875,0.397705078125,0.72216796875,0.552001953125,-2.014159917831421,-0.2746581733226776,0.7324218153953552,66.66667175292969,69286.0,1.0
2191.7594809,3068.62646484375,9952.78515625,-217348.46875,-210547.359375,-191160.078125,-225885.84375,-203969.78125,-300128.6875,0.39892578125,0.7236328125,0.551513671875,-1.9226073026657104,-0.2136230319738388,0.7629393935203552,66.66667175292969,69287.0,1.0
2191.7682045,-10535.9873046875,5883.7841796875,-217839.390625,-211016.65625,-192563.421875,-223349.90625,-201104.28125,-300316.34375,0.3974609375,0.72265625,0.550537109375,-1.8615721464157104,-0.1831054538488388,0.7019042372703552,66.66667175292969,69288.0,1.0
2191.7682114,9160.37109375,5387.48583984375,-216822.484375,-210294.078125,-192168.6875,-226134.484375,-204675.828125,-299928.25,0.396728515625,0.72216796875,0.55322265625,-1.9531248807907104,-0.2136230319738388,0.5798339247703552,66.66667175292969,69289.0,1.0
2191.7701314,25850.59765625,9269.984375,-216161.578125,-209695.046875,-190718.59375,-229153.3125,-208153.84375,-299664.3125,0.395751953125,0.72265625,0.553955078125,-2.014159917831421,-0.2441406100988388,0.7324218153953552,66.66667175292969,69290.0,1.0
2191.7838663,8222.849609375,10332.228515625,-217135.671875,-210382.3125,-190935.40625,-226683.0,-204934.21875,-300071.375,0.397216796875,0.72265625,0.551513671875,-1.8920897245407104,-0.1831054538488388,0.7019042372703552,66.66667175292969,69291.0,1.0
2191.7875496,-10718.01953125,6426.75244140625,-217909.484375,-211056.625,-192423.40625,-223404.0,-201113.578125,-300376.96875,0.396728515625,0.72509765625,0.552734375,-1.9836424589157104,-0.3051757514476776,0.6408690810203552,66.66667175292969,69292.0,1.0
2191.7875574,4404.724609375,4874.73681640625,-217061.015625,-210483.078125,-192398.8125,-225413.421875,-203784.984375,-300051.34375,0.396728515625,0.722900390625,0.55029296875,-1.9836424589157104,-0.2441406100988388,0.6408690810203552,66.66667175292969,69293.0,1.0
2191.78756,25171.462890625,8558.4833984375,-216154.515625,-209712.921875,-190919.578125,-229015.453125,-208032.875,-299685.3125,0.397705078125,0.72216796875,0.5537109375,-2.014159917831421,-0.1525878757238388,0.6103515028953552,66.66667175292969,69294.0,1.0
2191.7914372,12729.05078125,10612.072265625,-216912.609375,-210214.140625,-190748.90625,-227432.3125,-205856.453125,-300005.75,0.39697265625,0.721435546875,0.55224609375,-1.9226073026657104,-0.3356933295726776,0.6103515028953552,66.66667175292969,69295.0,1.0
2191.7951234,-10129.900390625,7266.82080078125,-217915.03125,-211044.28125,-192220.453125,-223635.921875,-201342.921875,-300407.5625,0.3974609375,0.721435546875,0.55224609375,-1.9836424589157104,-0.3967284858226776,0.6408690810203552,66.66667175292969,69296.0,1.0
2191.7988599,103.08625030517578,4867.13720703125,-217289.453125,-210657.875,-192573.703125,-224757.625,-202963.140625,-300167.5,0.396728515625,0.7216796875,0.552001953125,-1.9531248807907104,-0.3051757514476776,0.6103515028953552,66.66667175292969,69297.0,1.0
2191.8132043,23738.08984375,7767.32080078125,-216213.984375,-209782.84375,-191171.4375,-228692.0625,-207682.765625,-299737.625,0.397705078125,0.722900390625,0.55224609375,-1.9531248807907104,-0.2746581733226776,0.7019042372703552,66.66667175292969,69298.0,1.0
2191.8132113,17306.599609375,10642.2919921875,-216708.3125,-210065.640625,-190624.53125,-228093.84375,-206684.171875,-299949.53125,0.39794921875,0.723876953125,0.5556640625,-1.9531248807907104,-0.2441406100988388,0.7324218153953552,66.66667175292969,69299.0,1.0
2191.8151172,-7875.32470703125,7987.08349609375,-217870.515625,-210996.546875,-191982.09375,-224047.015625,-201793.796875,-300424.0,0.397216796875,0.7236328125,0.552734375,-2.014159917831421,-0.2136230319738388,0.6408690810203552,66.66667175292969,69300.0,1.0
2191.8176319,-3974.498046875,4718.45361328125,-217515.03125,-210826.765625,-192689.921875,-224174.6875,-202221.703125,-300283.71875,0.39892578125,0.722900390625,0.552490234375,-2.075195074081421,-0.2441406100988388,0.6408690810203552,66.66667175292969,69301.0,1.0
2191.8201322,20688.865234375,7008.88134765625,-216340.21875,-209903.640625,-191447.265625,-228164.03125,-207086.15625,-299818.0,0.3984375,0.723388671875,0.548828125,-1.9836424589157104,-0.2136230319738388,0.6408690810203552,66.66667175292969,69302.0,1.0
2191.8294716,20730.439453125,10535.80859375,-216527.890625,-209941.09375,-190562.578125,-228620.890625,-207363.3125,-299903.03125,0.3994140625,0.723388671875,0.55126953125,-2.014159917831421,-0.3051757514476776,0.6408690810203552,66.66667175292969,69303.0,1.0
2191.8294784,-4842.908203125,8728.177734375,-217752.765625,-210893.1875,-191719.0625,-224640.9375,-202474.359375,-300405.84375,0.396728515625,0.72265625,0.5546875,-1.9531248807907104,-0.2441406100988388,0.6408690810203552,66.66667175292969,69304.0,1.0
2191.8319485,-7050.27685546875,4874.91552734375,-217682.390625,-210944.328125,-192739.640625,-223806.78125,-201724.59375,-300373.125,0.395751953125,0.72265625,0.552490234375,-1.9836424589157104,-0.2746581733226776,0.6408690810203552,66.66667175292969,69305.0,1.0
2191.831955,17068.150390625,6250.71044921875,-216501.59375,-210046.765625,-191745.25,-227571.34375,-206381.625,-299913.5,0.3994140625,0.72265625,0.55126953125,-2.044677495956421,-0.2136230319738388,0.7019042372703552,66.66667175292969,69306.0,1.0
2191.8426189,23368.392578125,10224.4033203125,-216384.921875,-209849.453125,-190583.140625,-229012.59375,-207873.109375,-299873.34375,0.399169921875,0.72021484375,0.553466796875,-2.014159917831421,-0.3051757514476776,0.7324218153953552,66.66667175292969,69307.0,1.0
2191.8457073,-869.3934936523438,9424.3896484375,-217592.546875,-210760.78125,-191452.625,-225352.171875,-203306.921875,-300372.15625,0.39794921875,0.72119140625,0.5546875,-1.8920897245407104,-0.3051757514476776,0.7019042372703552,66.66667175292969,69308.0,1.0
2191.8457127,-9382.1005859375,5403.5791015625,-217831.4375,-211045.359375,-192716.65625,-223547.578125,-201359.1875,-300459.84375,0.399169921875,0.722412109375,0.5537109375,-1.9531248807907104,-0.2441406100988388,0.5798339247703552,66.66667175292969,69309.0,1.0
2191.8476097,12960.2568359375,5724.013671875,-216712.0625,-210223.359375,-192031.265625,-226854.390625,-205522.6875,-300028.09375,0.399658203125,0.72119140625,0.552734375,-1.9531248807907104,-0.3051757514476776,0.6408690810203552,66.66667175292969,69310.0,1.0
2191.8564296,25231.90234375,9729.625,-216288.1875,-209795.1875,-190675.5,-229222.421875,-208171.8125,-299860.90625,0.39990234375,0.722412109375,0.549072265625,-1.9531248807907104,-0.3051757514476776,0.6408690810203552,66.66667175292969,69311.0,1.0
2191.8601391,4053.623046875,9937.0498046875,-217398.53125,-210606.28125,-191204.96875,-226133.859375,-204239.96875,-300322.4375,0.3994140625,0.721435546875,0.54931640625,-1.9836424589157104,-0.3051757514476776,0.6713866591453552,66.66667175292969,69312.0,1.0
2191.8694722,-10601.7900390625,5797.50634765625,-217942.125,-211115.09375,-192628.59375,-223451.65625,-201188.15625,-300531.28125,0.400390625,0.7236328125,0.550048828125,-1.9531248807907104,-0.3967284858226776,0.5798339247703552,66.66667175292969,69313.0,1.0
2191.8694794,8116.63427734375,5135.26904296875,-216947.03125,-210412.890625,-192293.140625,-226103.828125,-204609.671875,-300149.34375,0.399169921875,0.720947265625,0.548583984375,-1.9531248807907104,-0.3051757514476776,0.5798339247703552,66.66667175292969,69314.0,1.0
2191.8714281,25534.8125,9100.5576171875,-216236.859375,-209777.65625,-190830.53125,-229242.71875,-208244.15625,-299863.78125,0.398681640625,0.7216796875,0.551513671875,-2.014159917831421,-0.3662109076976776,0.6103515028953552,66.66667175292969,69315.0,1.0
2191.8751159,8704.3955078125,10350.1103515625,-217178.046875,-210435.875,-190980.640625,-226921.8125,-205197.875,-300257.875,0.399169921875,0.720947265625,0.552978515625,-2.044677495956421,-0.2136230319738388,0.7629393935203552,66.66667175292969,69316.0,1.0
2191.8869543,-10987.3134765625,6617.27880859375,-218000.0625,-211144.0625,-192473.296875,-223532.5625,-201232.5,-300584.125,0.39892578125,0.722412109375,0.5537109375,-1.9226073026657104,-0.2136230319738388,0.7019042372703552,66.66667175292969,69317.0,1.0
2191.8869616,3597.111083984375,4964.2333984375,-217188.953125,-210602.796875,-192516.125,-225391.0625,-203727.21875,-300273.875,0.39794921875,0.72119140625,0.552001953125,-1.8920897245407104,-0.1831054538488388,0.6713866591453552,66.66667175292969,69318.0,1.0
2191.8888622,25078.12109375,8369.2978515625,-216250.09375,-209812.53125,-191046.265625,-229072.84375,-208083.21875,-299896.6875,0.3984375,0.721435546875,0.551513671875,-1.9226073026657104,-0.2441406100988388,0.6713866591453552,66.66667175292969,69319.0,1.0
2191.8932017,13695.451171875,10570.408203125,-216964.375,-210277.359375,-190806.921875,-227658.609375,-206107.5,-300199.5,0.39892578125,0.722412109375,0.5498046875,-1.8920897245407104,-0.3051757514476776,0.7019042372703552,66.66667175292969,69320.0,1.0
2191.8932071,-9717.8232421875,7306.60693359375,-217999.796875,-211128.78125,-192264.4375,-223797.484375,-201502.6875,-300615.25,0.397216796875,0.72265625,0.552734375,-1.9531248807907104,-0.1525878757238388,0.7324218153953552,66.66667175292969,69321.0,1.0
2191.9014313,-760.2275390625,4673.03466796875,-217419.09375,-210777.859375,-192681.34375,-224743.9375,-202914.328125,-300390.03125,0.397216796875,0.722900390625,0.554443359375,-1.9531248807907104,-0.2441406100988388,0.7934569716453552,66.66667175292969,69322.0,1.0
2191.9044717,23113.671875,7582.6953125,-216318.046875,-209887.546875,-191300.359375,-228714.5,-207691.796875,-299950.0625,0.3994140625,0.72314453125,0.55419921875,-2.014159917831421,-0.2441406100988388,0.7019042372703552,66.66667175292969,69323.0,1.0
2191.9044772,17868.521484375,10617.8837890625,-216758.734375,-210127.59375,-190687.75,-228313.328125,-206928.703125,-300140.21875,0.3984375,0.7236328125,0.551513671875,-2.014159917831421,-0.2136230319738388,0.7019042372703552,66.66667175292969,69324.0,1.0
2191.9064271,-7568.65869140625,8150.60888671875,-217943.203125,-211071.640625,-192014.453125,-224247.375,-202002.015625,-300624.71875,0.397705078125,0.723876953125,0.553466796875,-1.9836424589157104,-0.3051757514476776,0.7019042372703552,66.66667175292969,69325.0,1.0
2191.9201219,-4471.33251953125,4873.0380859375,-217631.703125,-210937.453125,-192780.59375,-224212.6875,-202232.875,-300503.21875,0.3984375,0.72314453125,0.553955078125,-1.9836424589157104,-0.1831054538488388,0.7934569716453552,66.66667175292969,69326.0,1.0
2191.9226147,20352.42578125,6857.2470703125,-216454.390625,-210017.359375,-191579.671875,-228179.046875,-207079.09375,-300039.5625,0.398193359375,0.7236328125,0.54931640625,-1.9226073026657104,-0.2441406100988388,0.6713866591453552,66.66667175292969,69327.0,1.0
2191.9251199,21477.61328125,10452.5703125,-216595.921875,-210019.234375,-190642.515625,-228794.875,-207553.75,-300105.34375,0.3984375,0.72265625,0.5498046875,-1.9226073026657104,-0.2136230319738388,0.6713866591453552,66.66667175292969,69328.0,1.0
2191.9276318,-3968.6865234375,8820.982421875,-217821.25,-210966.6875,-191751.25,-224848.640625,-202696.359375,-300607.46875,0.39794921875,0.72607421875,0.5537109375,-1.9836424589157104,-0.1831054538488388,0.6408690810203552,66.66667175292969,69329.0,1.0
2191.9314213,-7367.76123046875,4884.75048828125,-217804.703125,-211058.5,-192820.1875,-223838.6875,-201731.390625,-300594.84375,0.398681640625,0.724365234375,0.551513671875,-1.9226073026657104,-0.2441406100988388,0.5798339247703552,66.66667175292969,69330.0,1.0
2191.9406992,16425.76171875,6095.76806640625,-216628.828125,-210169.34375,-191875.34375,-227537.46875,-206320.921875,-300136.65625,0.398681640625,0.723388671875,0.553466796875,-2.075195074081421,-0.1831054538488388,0.6713866591453552,66.66667175292969,69331.0,1.0
2191.9407059,23808.453125,10106.9228515625,-216459.3125,-209931.796875,-190674.609375,-229150.90625,-208025.375,-300074.78125,0.39990234375,0.72265625,0.550537109375,-1.9836424589157104,-0.3051757514476776,0.7324218153953552,66.66667175292969,69332.0,1.0
2191.942618,7.3313727378845215,9485.0078125,-217651.90625,-210826.765625,-191485.890625,-225571.140625,-203545.90625,-300565.53125,0.400390625,0.7236328125,0.554443359375,-1.9226073026657104,-0.3051757514476776,0.6408690810203552,66.66667175292969,69333.0,1.0
2191.9569567,-9622.158203125,5453.46826171875,-217944.546875,-211151.671875,-192782.828125,-223602.65625,-201394.953125,-300673.96875,0.39892578125,0.72216796875,0.55078125,-2.014159917831421,-0.3051757514476776,0.6713866591453552,66.66667175292969,69334.0,1.0
2191.9569637,12233.646484375,5601.43701171875,-216844.75,-210349.5,-192157.421875,-226811.921875,-205449.015625,-300252.78125,0.400146484375,0.7236328125,0.548095703125,-1.9836424589157104,-0.2441406100988388,0.6408690810203552,66.66667175292969,69335.0,1.0
2191.9588589,25498.9609375,9593.279296875,-216369.546875,-209884.328125,-190776.53125,-229326.5,-208283.75,-300065.21875,0.3994140625,0.72216796875,0.548828125,-2.075195074081421,-0.2136230319738388,0.7324218153953552,66.66667175292969,69336.0,1.0
2191.9614251,5035.22265625,9985.240234375,-217452.0,-210669.5,-191238.671875,-226355.59375,-204486.90625,-300513.6875,0.398193359375,0.722412109375,0.55078125,-1.9836424589157104,-0.2441406100988388,0.7019042372703552,66.66667175292969,69337.0,1.0
2191.9651234,-10575.5048828125,5885.572265625,-218045.65625,-211214.34375,-192680.453125,-223537.21875,-201261.203125,-300742.03125,0.399169921875,0.721923828125,0.550537109375,-1.9226073026657104,-0.2746581733226776,0.6408690810203552,66.66667175292969,69338.0,1.0
2191.9694692,7421.49462890625,5024.76171875,-217080.953125,-210539.671875,-192412.234375,-226066.09375,-204538.671875,-300374.03125,0.398681640625,0.7216796875,0.550048828125,-1.8920897245407104,-0.2746581733226776,0.6713866591453552,66.66667175292969,69339.0,1.0
2191.9694762,25571.291015625,8945.4365234375,-216326.1875,-209872.96875,-190940.765625,-229312.90625,-208314.6875,-300069.78125,0.396484375,0.72216796875,0.552734375,-1.8005369901657104,-0.2746581733226776,0.5798339247703552,66.66667175292969,69340.0,1.0
2191.9776248,9624.572265625,10369.5107421875,-217233.03125,-210500.78125,-191022.671875,-227137.09375,-205439.546875,-300449.65625,0.398193359375,0.72265625,0.553466796875,-1.8920897245407104,-0.3356933295726776,0.7629393935203552,66.66667175292969,69341.0,1.0
2191.9807004,-10825.0400390625,6714.82177734375,-218096.625,-211237.140625,-192514.6875,-223644.40625,-201338.796875,-300791.90625,0.39990234375,0.721923828125,0.5537109375,-1.8920897245407104,-0.2746581733226776,0.6713866591453552,66.66667175292969,69342.0,1.0
2191.9807054,2826.691162109375,4904.50927734375,-217327.359375,-210731.71875,-192625.46875,-225346.625,-203649.34375,-300498.5625,0.3974609375,0.720947265625,0.55322265625,-1.9226073026657104,-0.2746581733226776,0.7629393935203552,66.66667175292969,69343.0,1.0
2191.986428,24950.5390625,8204.7890625,-216347.1875,-209913.015625,-191164.640625,-229119.78125,-208126.765625,-300105.09375,0.398193359375,0.722900390625,0.55126953125,-1.9531248807907104,-0.3051757514476776,0.6713866591453552,66.66667175292969,69344.0,1.0
2191.9926151,14631.36328125,10559.6796875,-217015.328125,-210338.234375,-190857.359375,-227876.140625,-206350.875,-300387.4375,0.399169921875,0.723388671875,0.553955078125,-2.014159917831421,-0.3051757514476776,0.6408690810203552,66.66667175292969,69345.0,1.0
2191.9969601,-9306.0146484375,7408.97802734375,-218088.578125,-211216.484375,-192302.265625,-223952.78125,-201658.25,-300821.9375,0.39892578125,0.72265625,0.552978515625,-2.014159917831421,-0.2441406100988388,0.6713866591453552,66.66667175292969,69346.0,1.0
2191.9969661,-1315.0872802734375,4625.47021484375,-217549.453125,-210900.34375,-192782.375,-224738.21875,-202877.046875,-300612.90625,0.3974609375,0.7216796875,0.55224609375,-1.9226073026657104,-0.2136230319738388,0.6408690810203552,66.66667175292969,69347.0,1.0
2192.0051139,22709.462890625,7423.28271484375,-216431.0625,-210001.53125,-191426.703125,-228717.546875,-207678.296875,-300167.03125,0.39697265625,0.722900390625,0.552490234375,-1.8920897245407104,-0.2136230319738388,0.6713866591453552,66.66667175292969,69348.0,1.0
2192.009471,18454.853515625,10568.978515625,-216825.4375,-210203.6875,-190757.390625,-228479.8125,-207114.5,-300337.90625,0.400146484375,0.723388671875,0.55126953125,-1.9531248807907104,-0.1831054538488388,0.6103515028953552,66.66667175292969,69349.0,1.0
2192.0094771,-7029.08740234375,8229.8232421875,-218017.671875,-211148.359375,-192053.53125,-224430.84375,-202194.96875,-300824.0,0.401611328125,0.724365234375,0.552001953125,-2.014159917831421,-0.2441406100988388,0.6408690810203552,66.66667175292969,69350.0,1.0
2192.0113489,-4936.69580078125,4860.7001953125,-217753.921875,-211050.453125,-192875.53125,-224234.671875,-202227.59375,-300717.625,0.39990234375,0.723388671875,0.55126953125,-1.9531248807907104,-0.2441406100988388,0.7934569716453552,66.66667175292969,69351.0,1.0
2192.0201215,19808.1171875,6711.3349609375,-216573.03125,-210132.875,-191714.671875,-228167.421875,-207044.21875,-300253.59375,0.3994140625,0.722900390625,0.5517578125,-1.9836424589157104,-0.1831054538488388,0.7324218153953552,66.66667175292969,69352.0,1.0
2192.0226157,22016.73828125,10374.96484375,-216661.1875,-210092.453125,-190726.734375,-228960.28125,-207736.234375,-300298.125,0.3984375,0.72412109375,0.5556640625,-1.8920897245407104,-0.2136230319738388,0.7019042372703552,66.66667175292969,69353.0,1.0
2192.0288597,-3251.195556640625,8916.46875,-217889.640625,-211037.671875,-191787.453125,-225059.375,-202921.84375,-300802.71875,0.3984375,0.72314453125,0.55419921875,-1.9226073026657104,-0.2136230319738388,0.7324218153953552,66.66667175292969,69354.0,1.0
2192.0351121,-7716.4482421875,4953.50439453125,-217927.375,-211172.140625,-192898.96875,-223874.28125,-201742.390625,-300811.65625,0.396728515625,0.720703125,0.5517578125,-1.9226073026657104,-0.2136230319738388,0.7019042372703552,66.66667175292969,69355.0,1.0
2192.0419451,15770.6767578125,6001.80126953125,-216760.609375,-210295.5,-192006.40625,-227501.34375,-206256.1875,-300358.65625,0.3984375,0.721923828125,0.5537109375,-1.9226073026657104,-0.2746581733226776,0.7019042372703552,66.66667175292969,69356.0,1.0
2192.0419518,24228.93359375,10045.232421875,-216534.765625,-210015.21875,-190769.015625,-229284.828125,-208172.0,-300273.96875,0.398193359375,0.722900390625,0.550537109375,-1.8920897245407104,-0.2746581733226776,0.7019042372703552,66.66667175292969,69357.0,1.0
2192.0444682,928.9385375976562,9596.8564453125,-217716.640625,-210898.015625,-191523.53125,-225798.5,-203795.34375,-300763.375,0.39794921875,0.72265625,0.552490234375,-1.9836424589157104,-0.2441406100988388,0.7019042372703552,66.66667175292969,69358.0,1.0
2192.044472,-9746.076171875,5552.79931640625,-218065.5,-211265.65625,-192850.5,-223669.625,-201443.671875,-300894.375,0.397705078125,0.722412109375,0.55615234375,-1.9531248807907104,-0.2441406100988388,0.6103515028953552,66.66667175292969,69359.0,1.0
2192.0551203,11520.7158203125,5523.5634765625,-216986.625,-210484.0625,-192285.0,-226765.078125,-205370.34375,-300480.9375,0.397216796875,0.721923828125,0.5546875,-1.8310545682907104,-0.3051757514476776,0.6408690810203552,66.66667175292969,69360.0,1.0
2192.0694708,25680.009765625,9477.408203125,-216453.765625,-209973.734375,-190880.421875,-229424.3125,-208388.625,-300265.84375,0.39892578125,0.723876953125,0.55322265625,-1.8005369901657104,-0.3356933295726776,0.7629393935203552,66.66667175292969,69361.0,1.0
2192.069477,5953.7001953125,10041.56640625,-217509.03125,-210733.328125,-191278.375,-226586.171875,-204743.0625,-300703.65625,0.400390625,0.723388671875,0.5537109375,-1.9226073026657104,-0.2746581733226776,0.7934569716453552,66.66667175292969,69362.0,1.0
2192.0751136,-10573.359375,6006.0927734375,-218156.703125,-211319.578125,-192735.609375,-223631.09375,-201342.375,-300957.21875,0.397705078125,0.7216796875,0.553955078125,-2.014159917831421,-0.2136230319738388,0.7629393935203552,66.66667175292969,69363.0,1.0
2192.0794722,6681.11572265625,4991.32373046875,-217224.015625,-210674.046875,-192531.59375,-226019.421875,-204458.390625,-300602.0,0.397216796875,0.722900390625,0.5556640625,-2.044677495956421,-0.3356933295726776,0.7324218153953552,66.66667175292969,69364.0,1.0
2192.0794781,25661.4140625,8835.01953125,-216416.9375,-209968.1875,-191054.3125,-229394.09375,-208399.09375,-300273.71875,0.396240234375,0.72216796875,0.553955078125,-2.014159917831421,-0.2746581733226776,0.6713866591453552,66.66667175292969,69365.0,1.0
2192.0907085,10693.5224609375,10437.1923828125,-217281.40625,-210558.453125,-191064.234375,-227381.265625,-205712.234375,-300634.1875,0.396240234375,0.72314453125,0.55126953125,-2.014159917831421,-0.2441406100988388,0.6103515028953552,66.66667175292969,69366.0,1.0
2192.0907157,-10530.0859375,6863.95263671875,-218192.734375,-211330.75,-192555.453125,-223778.34375,-201465.84375,-300999.5,0.398681640625,0.723388671875,0.5517578125,-2.044677495956421,-0.3051757514476776,0.6408690810203552,66.66667175292969,69367.0,1.0
2192.0926134,2251.80419921875,4893.0654296875,-217463.265625,-210861.1875,-192733.375,-225323.390625,-203592.296875,-300725.65625,0.399169921875,0.72314453125,0.55126953125,-2.105712652206421,-0.2746581733226776,0.5493163466453552,66.66667175292969,69368.0,1.0
2192.0969438,24685.177734375,8086.41455078125,-216459.9375,-210027.640625,-191285.4375,-229133.203125,-208129.34375,-300322.4375,0.39990234375,0.7236328125,0.5546875,-2.014159917831421,-0.2441406100988388,0.6103515028953552,66.66667175292969,69369.0,1.0
2192.0969492,15367.9873046875,10566.6533203125,-217081.671875,-210413.875,-190914.125,-228059.6875,-206560.53125,-300584.21875,0.397705078125,0.722900390625,0.552001953125,-1.9531248807907104,-0.3356933295726776,0.5493163466453552,66.66667175292969,69370.0,1.0
2192.105113,-8868.6357421875,7534.23681640625,-218177.0,-211304.375,-192339.09375,-224106.015625,-201816.6875,-301027.59375,0.3974609375,0.722412109375,0.549560546875,-1.9531248807907104,-0.2441406100988388,0.5493163466453552,66.66667175292969,69371.0,1.0
2192.1082052,-1883.7156982421875,4615.814453125,-217683.921875,-211026.140625,-192882.328125,-224727.84375,-202836.90625,-300836.53125,0.39794921875,0.72265625,0.55126953125,-1.9836424589157104,-0.2136230319738388,0.6408690810203552,66.66667175292969,69372.0,1.0
2192.1082102,22294.703125,7316.888671875,-216548.53125,-210118.65625,-191553.75,-228718.171875,-207664.4375,-300384.125,0.397216796875,0.7216796875,0.55126953125,-1.9836424589157104,-0.2441406100988388,0.7324218153953552,66.66667175292969,69373.0,1.0
2192.1107058,19122.72265625,10570.05078125,-216891.859375,-210278.875,-190826.0625,-228658.71875,-207316.375,-300533.4375,0.3984375,0.72265625,0.550048828125,-2.014159917831421,-0.2746581733226776,0.7019042372703552,66.66667175292969,69374.0,1.0
2192.1107093,-6439.0908203125,8384.05078125,-218095.1875,-211228.203125,-192087.140625,-224614.65625,-202389.328125,-301025.4375,0.398681640625,0.723876953125,0.55322265625,-2.075195074081421,-0.1831054538488388,0.7324218153953552,66.66667175292969,69375.0,1.0
2192.1164249,-5402.1484375,4922.6591796875,-217880.875,-211169.1875,-192962.265625,-224249.78125,-202215.703125,-300938.0,0.398681640625,0.72265625,0.55126953125,-1.9226073026657104,-0.1831054538488388,0.7019042372703552,66.66667175292969,69376.0,1.0
2192.148187,19252.98828125,6623.3583984375,-216698.296875,-210255.625,-191843.875,-228149.71875,-207004.96875,-300474.6875,0.39892578125,0.72216796875,0.552001953125,-1.9226073026657104,-0.2441406100988388,0.7629393935203552,66.66667175292969,69377.0,1.0
2192.1481937,22531.990234375,10349.6630859375,-216734.328125,-210174.359375,-190808.453125,-229114.875,-207908.875,-300497.5,0.39990234375,0.722412109375,0.551025390625,-1.9531248807907104,-0.2441406100988388,0.7019042372703552,66.66667175292969,69378.0,1.0
2192.1501179,-2502.859130859375,9059.4306640625,-217959.65625,-211112.234375,-191821.25,-225265.890625,-203145.890625,-301000.84375,0.400390625,0.722412109375,0.552978515625,-1.8920897245407104,-0.2441406100988388,0.6408690810203552,66.66667175292969,69379.0,1.0
2192.1526338,-8006.126953125,5053.7294921875,-218047.453125,-211284.4375,-192972.984375,-223915.140625,-201761.515625,-301028.03125,0.399169921875,0.722900390625,0.5537109375,-1.9531248807907104,-0.2746581733226776,0.7324218153953552,66.66667175292969,69380.0,1.0
2192.1551267,15164.765625,5903.3642578125,-216889.8125,-210419.328125,-192131.84375,-227466.828125,-206194.40625,-300580.09375,0.3984375,0.721923828125,0.552978515625,-1.8615721464157104,-0.2746581733226776,0.6713866591453552,66.66667175292969,69381.0,1.0
2192.1576139,24579.857421875,9968.07421875,-216613.0,-210100.0625,-190861.90625,-229405.4375,-208304.5,-300473.8125,0.3984375,0.720947265625,0.552490234375,-1.9836424589157104,-0.2136230319738388,0.6713866591453552,66.66667175292969,69382.0,1.0
2192.1601156,1778.394287109375,9702.982421875,-217776.984375,-210964.359375,-191557.59375,-226011.546875,-204030.75,-300954.375,0.398681640625,0.721923828125,0.54931640625,-1.9226073026657104,-0.1525878757238388,0.6408690810203552,66.66667175292969,69383.0,1.0
2192.162627,-9905.310546875,5665.54150390625,-218176.8125,-211369.640625,-192913.53125,-223735.515625,-201493.125,-301106.25,0.399169921875,0.72265625,0.550537109375,-1.8615721464157104,-0.3051757514476776,0.6713866591453552,66.66667175292969,69384.0,1.0
2192.1651103,10827.990234375,5470.90283203125,-217120.921875,-210610.21875,-192409.71875,-226727.609375,-205302.125,-300703.5625,0.3974609375,0.72265625,0.552001953125,-1.8615721464157104,-0.2746581733226776,0.6713866591453552,66.66667175292969,69385.0,1.0
2192.1676098,25865.88671875,9404.18359375,-216541.828125,-210067.6875,-190987.078125,-229517.296875,-208487.34375,-300471.03125,0.398193359375,0.72265625,0.552734375,-1.8615721464157104,-0.2746581733226776,0.6408690810203552,66.66667175292969,69386.0,1.0
2192.1701266,6885.5,10147.423828125,-217568.3125,-210801.09375,-191319.671875,-226800.5625,-204981.953125,-300896.4375,0.3994140625,0.7236328125,0.55419921875,-1.8920897245407104,-0.3356933295726776,0.6103515028953552,66.66667175292969,69387.0,1.0
2192.1726287,-10491.6416015625,6134.4814453125,-218263.09375,-211420.421875,-192791.21875,-223732.203125,-201433.75,-301170.09375,0.3994140625,0.72314453125,0.552734375,-1.8615721464157104,-0.2746581733226776,0.6713866591453552,66.66667175292969,69388.0,1.0
2192.1751116,6029.42822265625,4915.14892578125,-217358.828125,-210799.21875,-192651.578125,-225992.234375,-204398.578125,-300825.25,0.398193359375,0.722412109375,0.553466796875,-1.8615721464157104,-0.3662109076976776,0.7324218153953552,66.66667175292969,69389.0,1.0
2192.1781962,25597.93359375,8715.302734375,-216517.421875,-210071.265625,-191171.53125,-229447.1875,-208448.0,-300484.625,0.398681640625,0.72314453125,0.553955078125,-1.9836424589157104,-0.3662109076976776,0.6713866591453552,66.66667175292969,69390.0,1.0
2192.1782034,11529.1201171875,10494.859375,-217348.28125,-210634.265625,-191115.734375,-227578.859375,-205934.859375,-300833.5625,0.3984375,0.720947265625,0.5546875,-1.9836424589157104,-0.3356933295726776,0.5798339247703552,66.66667175292969,69391.0,1.0
2192.180126,-10352.3447265625,7041.33642578125,-218298.765625,-211434.1875,-192598.90625,-223890.1875,-201575.375,-301216.78125,0.3984375,0.720703125,0.552734375,-1.9836424589157104,-0.2136230319738388,0.6713866591453552,66.66667175292969,69392.0,1.0
2192.1894671,1581.34130859375,4913.271484375,-217600.59375,-210989.03125,-192838.078125,-225295.671875,-203535.0,-300951.84375,0.39892578125,0.720458984375,0.552734375,-1.8920897245407104,-0.1831054538488388,0.7019042372703552,66.66667175292969,69393.0,1.0
2192.189473,24468.3671875,7999.60009765625,-216566.78125,-210136.53125,-191404.875,-229163.78125,-208152.328125,-300536.46875,0.398681640625,0.723876953125,0.552978515625,-1.8920897245407104,-0.2746581733226776,0.6713866591453552,66.66667175292969,69394.0,1.0
2192.1919413,16207.33984375,10617.7939453125,-217143.71875,-210485.84375,-190970.546875,-228259.78125,-206785.75,-300780.65625,0.395751953125,0.72216796875,0.55224609375,-1.8920897245407104,-0.2441406100988388,0.7019042372703552,66.66667175292969,69395.0,1.0
2192.1919448,-8385.8388671875,7711.44140625,-218262.203125,-211390.375,-192374.046875,-224270.078125,-201985.578125,-301233.65625,0.395263671875,0.720703125,0.551513671875,-1.9226073026657104,-0.2746581733226776,0.7019042372703552,66.66667175292969,69396.0,1.0
2192.2001111,-2420.42578125,4664.00439453125,-217815.609375,-211148.796875,-192978.171875,-224724.09375,-202803.828125,-301059.25,0.396484375,0.722412109375,0.551025390625,-1.9531248807907104,-0.2746581733226776,0.8239745497703552,66.66667175292969,69397.0,1.0
2192.2031999,21904.80078125,7195.7421875,-216666.109375,-210235.515625,-191680.4375,-228717.09375,-207647.171875,-300601.75,0.39794921875,0.72119140625,0.5537109375,-1.9531248807907104,-0.2441406100988388,0.7934569716453552,66.66667175292969,69398.0,1.0
2192.2032072,19889.119140625,10549.1298828125,-216956.953125,-210354.328125,-190896.875,-228837.078125,-207517.0,-300729.78125,0.3974609375,0.7236328125,0.55419921875,-1.8920897245407104,-0.2746581733226776,0.7934569716453552,66.66667175292969,69399.0,1.0
2192.2164256,-5697.37060546875,8518.1611328125,-218170.5625,-211306.15625,-192121.390625,-224808.140625,-202594.4375,-301226.78125,0.3994140625,0.721923828125,0.552978515625,-1.9226073026657104,-0.2441406100988388,0.7324218153953552,66.66667175292969,69400.0,1.0
2192.2194638,-5797.68505859375,4962.4453125,-218006.859375,-211285.421875,-193046.9375,-224269.015625,-202209.0,-301156.4375,0.399658203125,0.72314453125,0.5546875,-1.9531248807907104,-0.3051757514476776,0.7629393935203552,66.66667175292969,69401.0,1.0
2192.2194689,18709.484375,6521.16650390625,-216822.296875,-210374.984375,-191970.828125,-228124.78125,-206956.6875,-300692.125,0.399658203125,0.72314453125,0.55029296875,-2.014159917831421,-0.2441406100988388,0.8239745497703552,66.66667175292969,69402.0,1.0
2192.2212141,23140.671875,10330.3505859375,-216803.4375,-210251.78125,-190889.890625,-229267.125,-208077.859375,-300693.21875,0.398193359375,0.721435546875,0.5537109375,-1.8920897245407104,-0.2746581733226776,0.7629393935203552,66.66667175292969,69403.0,1.0
2192.2276242,-1602.083740234375,9212.673828125,-218023.578125,-211181.4375,-191852.09375,-225480.390625,-203378.078125,-301194.78125,0.39892578125,0.722412109375,0.550048828125,-1.9226073026657104,-0.2441406100988388,0.6713866591453552,66.66667175292969,69404.0,1.0
2192.2301233,-8251.99609375,5148.322265625,-218167.515625,-211396.109375,-193047.015625,-223961.265625,-201785.390625,-301244.75,0.400390625,0.72265625,0.552490234375,-1.9226073026657104,-0.2136230319738388,0.7324218153953552,66.66667175292969,69405.0,1.0
2192.2394705,14505.6572265625,5814.046875,-217023.734375,-210546.46875,-192261.484375,-227430.0,-206128.25,-300803.34375,0.40185546875,0.72216796875,0.551025390625,-2.014159917831421,-0.2136230319738388,0.6713866591453552,66.66667175292969,69406.0,1.0
2192.2394765,25015.1796875,9913.8037109375,-216690.421875,-210185.625,-190956.6875,-229530.078125,-208439.859375,-300674.4375,0.399658203125,0.72314453125,0.55029296875,-2.014159917831421,-0.2746581733226776,0.6103515028953552,66.66667175292969,69407.0,1.0
2192.2414229,2823.56201171875,9813.8466796875,-217835.734375,-211031.40625,-191593.078125,-226241.78125,-204283.234375,-301148.8125,0.39794921875,0.721923828125,0.55029296875,-1.9531248807907104,-0.3051757514476776,0.6408690810203552,66.66667175292969,69408.0,1.0
2192.2451276,-9955.0205078125,5765.0517578125,-218291.34375,-211476.75,-192975.5,-223810.625,-201551.140625,-301322.09375,0.3974609375,0.721923828125,0.553955078125,-1.8920897245407104,-0.2441406100988388,0.6103515028953552,66.66667175292969,69409.0,1.0
2192.2538602,10149.6591796875,5398.21484375,-217255.84375,-210737.078125,-192530.6875,-226682.640625,-205224.34375,-300926.375,0.398193359375,0.7197265625,0.553955078125,-1.8310545682907104,-0.3051757514476776,0.5798339247703552,66.66667175292969,69410.0,1.0
2192.2631917,26046.130859375,9288.759765625,-216628.734375,-210159.96875,-191093.65625,-229609.296875,-208583.984375,-300674.78125,0.398193359375,0.720703125,0.55224609375,-1.8920897245407104,-0.3356933295726776,0.6408690810203552,66.66667175292969,69411.0,1.0
2192.2631984,7905.5439453125,10211.171875,-217623.203125,-210864.484375,-191359.90625,-227029.546875,-205237.390625,-301087.125,0.398681640625,0.720947265625,0.552978515625,-2.044677495956421,-0.3051757514476776,0.7019042372703552,66.66667175292969,69412.0,1.0
2192.26569,-10355.474609375,6270.7373046875,-218363.765625,-211516.0,-192839.59375,-223836.28125,-201528.609375,-301377.875,0.400146484375,0.720458984375,0.55224609375,-2.044677495956421,-0.1831054538488388,0.7324218153953552,66.66667175292969,69413.0,1.0
2192.2656935,5388.73779296875,4877.8662109375,-217491.515625,-210923.046875,-192765.921875,-225957.640625,-204331.078125,-301045.28125,0.400146484375,0.72119140625,0.55078125,-1.8920897245407104,-0.2441406100988388,0.6103515028953552,66.66667175292969,69414.0,1.0
2192.2676133,25549.921875,8597.822265625,-216618.8125,-210175.96875,-191290.625,-229498.6875,-208495.390625,-300695.4375,0.398681640625,0.720703125,0.55126953125,-1.9226073026657104,-0.3356933295726776,0.6103515028953552,66.66667175292969,69415.0,1.0
2192.2764219,12478.1748046875,10527.9404296875,-217408.8125,-210704.265625,-191169.203125,-227788.78125,-206170.171875,-301028.75,0.3974609375,0.72265625,0.552978515625,-1.8920897245407104,-0.2746581733226776,0.6408690810203552,66.66667175292969,69416.0,1.0
2192.2806919,-10025.65234375,7139.68408203125,-218395.515625,-211527.078125,-192644.6875,-224023.671875,-201706.078125,-301425.71875,0.3974609375,0.722412109375,0.55419921875,-1.8615721464157104,-0.2441406100988388,0.6103515028953552,66.66667175292969,69417.0,1.0
2192.2806992,754.2373046875,4867.94189453125,-217746.140625,-211121.09375,-192947.15625,-225236.9375,-203440.3125,-301176.0,0.3974609375,0.721923828125,0.554443359375,-1.9531248807907104,-0.2441406100988388,0.7019042372703552,66.66667175292969,69418.0,1.0
2192.2888766,24134.07421875,7845.10498046875,-216680.40625,-210249.734375,-191529.328125,-229162.96875,-208143.296875,-300748.90625,0.3984375,0.722412109375,0.554931640625,-1.9836424589157104,-0.1831054538488388,0.6713866591453552,66.66667175292969,69419.0,1.0
2192.2919506,17087.552734375,10594.6376953125,-217203.71875,-210554.609375,-191032.140625,-228456.5625,-207009.265625,-300971.25,0.39794921875,0.7216796875,0.552490234375,-2.044677495956421,-0.2136230319738388,0.7629393935203552,66.66667175292969,69420.0,1.0
2192.291959,-7803.35205078125,7809.6103515625,-218344.640625,-211471.109375,-192412.5,-224441.203125,-202163.21875,-301433.59375,0.3974609375,0.721435546875,0.5517578125,-2.044677495956421,-0.1220703050494194,0.8239745497703552,66.66667175292969,69421.0,1.0
2192.2951081,-2912.611328125,4614.92041015625,-217943.90625,-211266.1875,-193075.265625,-224730.53125,-202781.734375,-301276.59375,0.396484375,0.721435546875,0.550537109375,-1.9836424589157104,-0.1525878757238388,0.7629393935203552,66.66667175292969,69422.0,1.0
2192.3038758,21461.51953125,7039.81640625,-216783.671875,-210349.78125,-191810.515625,-228720.671875,-207632.25,-300817.75,0.39697265625,0.72119140625,0.55029296875,-2.105712652206421,-0.3051757514476776,0.7629393935203552,66.66667175292969,69423.0,1.0
2192.3069485,20545.9921875,10502.19140625,-217024.90625,-210429.25,-190972.234375,-229015.1875,-207714.40625,-300925.46875,0.39794921875,0.720703125,0.55126953125,-2.014159917831421,-0.2136230319738388,0.7934569716453552,66.66667175292969,69424.0,1.0
2192.3069529,-5030.84130859375,8611.76953125,-218243.6875,-211380.453125,-192155.90625,-225004.828125,-202802.9375,-301423.9375,0.396728515625,0.721923828125,0.553955078125,-1.9226073026657104,-0.1525878757238388,0.7324218153953552,66.66667175292969,69425.0,1.0
2192.3176324,-6210.29833984375,4974.42578125,-218130.78125,-211399.140625,-193132.40625,-224298.25,-202212.046875,-301373.875,0.397216796875,0.722900390625,0.5517578125,-1.9226073026657104,-0.1831054538488388,0.7629393935203552,66.66667175292969,69426.0,1.0
2192.3206891,18124.2265625,6366.58154296875,-216951.234375,-210498.640625,-192103.59375,-228107.078125,-206913.5,-300914.5625,0.398681640625,0.721923828125,0.5537109375,-2.014159917831421,-0.1220703050494194,0.7629393935203552,66.66667175292969,69427.0,1.0
2192.3206967,23593.4296875,10214.1220703125,-216878.09375,-210332.96875,-190977.515625,-229412.5,-208237.265625,-300890.71875,0.39697265625,0.722900390625,0.552734375,-1.9226073026657104,-0.1525878757238388,0.7019042372703552,66.66667175292969,69428.0,1.0
2192.3264253,-813.7823486328125,9264.26171875,-218090.09375,-211251.625,-191888.21875,-225691.828125,-203607.328125,-301389.40625,0.397705078125,0.723876953125,0.552734375,-2.014159917831421,-0.2746581733226776,0.6408690810203552,66.66667175292969,69429.0,1.0
2192.3299617,-8555.17578125,5145.01416015625,-218286.078125,-211505.359375,-193120.953125,-224015.546875,-201819.1875,-301459.875,0.396484375,0.7216796875,0.550048828125,-1.9531248807907104,-0.3967284858226776,0.6408690810203552,66.66667175292969,69430.0,1.0
2192.3364256,13756.962890625,5659.1044921875,-217156.328125,-210671.1875,-192390.0625,-227397.890625,-206066.90625,-301024.625,0.398681640625,0.721923828125,0.548828125,-1.9226073026657104,-0.4882812201976776,0.6713866591453552,66.66667175292969,69431.0,1.0
2192.3431939,25183.623046875,9776.6533203125,-216771.15625,-210270.828125,-191055.296875,-229645.671875,-208565.296875,-300872.8125,0.396484375,0.7236328125,0.552001953125,-1.9226073026657104,-0.3662109076976776,0.6103515028953552,66.66667175292969,69432.0,1.0
2192.3432008,3567.606689453125,9861.5009765625,-217897.0625,-211096.953125,-191631.796875,-226464.484375,-204528.84375,-301339.625,0.39892578125,0.72412109375,0.55322265625,-1.9226073026657104,-0.3356933295726776,0.6713866591453552,66.66667175292969,69433.0,1.0
2192.3451094,-10210.724609375,5842.5673828125,-218405.4375,-211582.15625,-193039.78125,-223892.078125,-201617.21875,-301535.96875,0.397705078125,0.724365234375,0.552001953125,-2.014159917831421,-0.2746581733226776,0.6103515028953552,66.66667175292969,69434.0,1.0
2192.3538693,9284.736328125,5322.30810546875,-217394.953125,-210865.46875,-192657.46875,-226645.53125,-205154.609375,-301150.0625,0.39892578125,0.72216796875,0.55419921875,-1.9836424589157104,-0.2746581733226776,0.6713866591453552,66.66667175292969,69435.0,1.0
2192.3569487,26050.6015625,9191.126953125,-216718.765625,-210253.125,-191203.53125,-229692.4375,-208669.375,-300877.375,0.39794921875,0.72216796875,0.555419921875,-2.044677495956421,-0.2441406100988388,0.7629393935203552,66.66667175292969,69436.0,1.0
2192.3569542,8706.8095703125,10280.73046875,-217682.9375,-210930.203125,-191405.0625,-227255.46875,-205487.375,-301278.1875,0.39990234375,0.72216796875,0.55224609375,-1.9226073026657104,-0.2441406100988388,0.7324218153953552,66.66667175292969,69437.0,1.0
2192.365104,-10361.732421875,6417.72265625,-218469.625,-211614.609375,-192892.96875,-223950.09375,-201632.859375,-301589.78125,0.39990234375,0.72119140625,0.553466796875,-1.9836424589157104,-0.1831054538488388,0.7629393935203552,66.66667175292969,69438.0,1.0
2192.3744666,4604.548828125,4848.451171875,-217631.4375,-211051.53125,-192883.21875,-225925.453125,-204264.734375,-301270.3125,0.3994140625,0.721435546875,0.5517578125,-2.014159917831421,-0.2746581733226776,0.7019042372703552,66.66667175292969,69439.0,1.0
2192.3744729,25445.763671875,8464.78515625,-216715.46875,-210274.40625,-191409.53125,-229561.015625,-208554.921875,-300901.0625,0.399169921875,0.721923828125,0.5546875,-1.9836424589157104,-0.3356933295726776,0.7019042372703552,66.66667175292969,69440.0,1.0
2192.3808141,13375.3740234375,10559.5009765625,-217460.9375,-210763.734375,-191219.09375,-228020.96875,-206428.390625,-301213.1875,0.401123046875,0.723388671875,0.552734375,-1.9836424589157104,-0.1831054538488388,0.6408690810203552,66.66667175292969,69441.0,1.0
2192.3808214,-9641.1123046875,7286.57958984375,-218478.296875,-211606.484375,-192686.796875,-224194.71875,-201876.40625,-301624.03125,0.3994140625,0.722900390625,0.551025390625,-1.9226073026657104,-0.2136230319738388,0.7324218153953552,66.66667175292969,69442.0,1.0
2192.3844651,320.34521484375,4867.13720703125,-217866.21875,-211233.109375,-193054.265625,-225268.21875,-203440.578125,-301392.1875,0.399169921875,0.723388671875,0.55224609375,-1.9531248807907104,-0.2136230319738388,0.7019042372703552,66.66667175292969,69443.0,1.0
2192.3844696,23877.1171875,7739.33642578125,-216785.921875,-210354.6875,-191657.1875,-229205.171875,-208169.5,-300959.90625,0.3994140625,0.72216796875,0.552978515625,-1.9226073026657104,-0.3051757514476776,0.6408690810203552,66.66667175292969,69444.0,1.0
2192.3926066,17764.09375,10624.7685546875,-217266.484375,-210624.796875,-191095.4375,-228644.953125,-207217.84375,-301163.84375,0.3984375,0.720947265625,0.555419921875,-1.9836424589157104,-0.2746581733226776,0.6713866591453552,66.66667175292969,69445.0,1.0
2192.4019481,-7367.93994140625,7978.85791015625,-218425.453125,-211551.140625,-192446.65625,-224608.671875,-202335.328125,-301634.21875,0.39892578125,0.72216796875,0.555908203125,-1.9531248807907104,-0.3662109076976776,0.7629393935203552,66.66667175292969,69446.0,1.0
2192.4019551,-3503.3232421875,4649.9677734375,-218071.859375,-211383.234375,-193169.5,-224733.296875,-202754.375,-301495.28125,0.398681640625,0.721923828125,0.552734375,-1.9531248807907104,-0.3051757514476776,0.7629393935203552,66.66667175292969,69447.0,1.0
2192.4106903,20941.619140625,6934.31591796875,-216903.3125,-210465.828125,-191940.875,-228711.734375,-207604.0,-301033.84375,0.398193359375,0.7216796875,0.554443359375,-2.014159917831421,-0.2746581733226776,0.7324218153953552,66.66667175292969,69448.0,1.0
2192.4106956,21114.173828125,10508.091796875,-217091.59375,-210503.734375,-191047.15625,-229178.796875,-207897.78125,-301119.5,0.399658203125,0.722900390625,0.552490234375,-1.9226073026657104,-0.2136230319738388,0.7324218153953552,66.66667175292969,69449.0,1.0
2192.4169391,-4390.5087890625,8777.0830078125,-218315.40625,-211453.953125,-192187.8125,-225199.734375,-203011.78125,-301620.1875,0.401611328125,0.7216796875,0.553955078125,-1.8920897245407104,-0.2136230319738388,0.6408690810203552,66.66667175292969,69450.0,1.0
2192.4169458,-6689.162109375,5050.6005859375,-218257.375,-211515.546875,-193216.796875,-224325.875,-202214.546875,-301592.625,0.400146484375,0.720947265625,0.55224609375,-1.9226073026657104,-0.2441406100988388,0.7019042372703552,66.66667175292969,69451.0,1.0
2192.4256925,17443.66015625,6282.44970703125,-217077.203125,-210618.265625,-192232.609375,-228074.34375,-206855.296875,-301132.28125,0.3974609375,0.723388671875,0.553466796875,-1.9531248807907104,-0.2441406100988388,0.8239745497703552,66.66667175292969,69452.0,1.0
2192.4256989,24001.39453125,10186.673828125,-216949.265625,-210411.640625,-191064.59375,-229550.375,-208390.0625,-301087.125,0.39892578125,0.72265625,0.553466796875,-1.9836424589157104,-0.1831054538488388,0.6408690810203552,66.66667175292969,69453.0,1.0
2192.4319348,-27.984384536743164,9399.9814453125,-218154.28125,-211320.46875,-191923.625,-225909.453125,-203844.703125,-301584.40625,0.399658203125,0.723388671875,0.551025390625,-1.9226073026657104,-0.1831054538488388,0.6408690810203552,66.66667175292969,69454.0,1.0
2192.4319403,-8866.9375,5250.0673828125,-218404.0,-211613.359375,-193191.6875,-224070.265625,-201853.875,-301675.25,0.39892578125,0.722900390625,0.5556640625,-1.9226073026657104,-0.1831054538488388,0.7019042372703552,66.66667175292969,69455.0,1.0
2192.4456937,12991.1025390625,5605.01318359375,-217288.734375,-210795.640625,-192516.203125,-227353.640625,-205992.4375,-301245.90625,0.400146484375,0.720703125,0.552978515625,-2.014159917831421,-0.3051757514476776,0.7629393935203552,66.66667175292969,69456.0,1.0
2192.4457001,25422.33984375,9714.3369140625,-216851.8125,-210357.734375,-191155.609375,-229753.59375,-208681.34375,-301073.1875,0.3984375,0.721435546875,0.553955078125,-1.9531248807907104,-0.3051757514476776,0.6103515028953552,66.66667175292969,69457.0,1.0
2192.4481899,4467.75634765625,9976.298828125,-217954.640625,-211161.953125,-191669.796875,-226687.296875,-204774.71875,-301530.6875,0.3974609375,0.7216796875,0.553466796875,-1.9531248807907104,-0.2746581733226776,0.7629393935203552,66.66667175292969,69458.0,1.0
2192.448194,-10250.7783203125,5974.0849609375,-218509.953125,-211680.59375,-193096.015625,-223979.515625,-201690.890625,-301745.96875,0.396728515625,0.721923828125,0.550537109375,-1.9226073026657104,-0.2746581733226776,0.7019042372703552,66.66667175292969,69459.0,1.0
2192.4501212,8586.1103515625,5267.94873046875,-217525.3125,-210987.609375,-192775.484375,-226612.015625,-205088.703125,-301370.71875,0.396728515625,0.719482421875,0.551513671875,-2.044677495956421,-0.2441406100988388,0.7629393935203552,66.66667175292969,69460.0,1.0
2192.4644683,26126.865234375,9074.80859375,-216804.421875,-210343.25,-191312.875,-229776.21875,-208756.265625,-301079.53125,0.3984375,0.720458984375,0.55322265625,-2.044677495956421,-0.2441406100988388,0.8239745497703552,66.66667175292969,69461.0,1.0
2192.4644754,9633.2451171875,10358.24609375,-217738.640625,-210994.390625,-191447.265625,-227478.984375,-205738.96875,-301469.15625,0.398193359375,0.72265625,0.5556640625,-1.9836424589157104,-0.2441406100988388,0.7324218153953552,66.66667175292969,69462.0,1.0
2192.4669333,-10336.8779296875,6593.5859375,-218579.0625,-211718.859375,-192937.234375,-224046.921875,-201721.90625,-301806.59375,0.397216796875,0.7216796875,0.55419921875,-2.014159917831421,-0.1831054538488388,0.7324218153953552,66.66667175292969,69463.0,1.0
2192.4669375,3844.05322265625,4842.99755859375,-217773.328125,-211185.015625,-192992.03125,-225883.078125,-204191.6875,-301501.71875,0.397216796875,0.722412109375,0.552734375,-1.9836424589157104,-0.1525878757238388,0.7324218153953552,66.66667175292969,69464.0,1.0
2192.4782012,25208.119140625,8371.265625,-216822.84375,-210383.75,-191524.6875,-229583.8125,-208572.28125,-301116.71875,0.397705078125,0.72265625,0.553466796875,-1.9836424589157104,-0.2441406100988388,0.7019042372703552,66.66667175292969,69465.0,1.0
2192.4782089,14072.748046875,10596.7841796875,-217526.921875,-210837.9375,-191274.609375,-228202.828125,-206635.09375,-301411.84375,0.3974609375,0.721923828125,0.554443359375,-1.8920897245407104,-0.1831054538488388,0.6713866591453552,66.66667175292969,69466.0,1.0
2192.4869452,-9353.04296875,7401.37841796875,-218567.890625,-211693.46875,-192729.0,-224336.0625,-202020.171875,-301830.46875,0.39892578125,0.7197265625,0.55224609375,-1.9836424589157104,-0.1831054538488388,0.6713866591453552,66.66667175292969,69467.0,1.0
2192.4869553,-323.6532897949219,4831.8212890625,-217994.78125,-211349.703125,-193159.21875,-225258.390625,-203401.59375,-301609.71875,0.398193359375,0.722900390625,0.5537109375,-1.9531248807907104,-0.3051757514476776,0.6408690810203552,66.66667175292969,69468.0,1.0
