Time,FZ,C3,CZ,C4,PZ,PO7,OZ,PO8,AccX,AccY,AccZ,Gyro1,Gyro2,Gyro3,Battery,Counter,Validation
1923.7954338,127204.40625,127314.2890625,127937.9921875,127505.796875,127437.671875,127533.515625,127717.78125,127830.9765625,0.400146484375,0.72314453125,0.55029296875,-1.8005369901657104,-0.3051757514476776,0.7019042372703552,66.66667175292969,2242.0,1.0
1923.7954411,127189.65625,127299.984375,127923.2421875,127491.40625,127423.1875,127519.03125,127703.03125,127816.7578125,0.400146484375,0.723876953125,0.5478515625,-1.8615721464157104,-0.3356933295726776,0.6103515028953552,66.66667175292969,2243.0,1.0
1923.7972835,127184.1171875,127294.4453125,127917.5234375,127485.953125,127417.734375,127513.3984375,127697.3984375,127810.9453125,0.39990234375,0.72509765625,0.550537109375,-1.8920897245407104,-0.1831054538488388,0.5493163466453552,66.66667175292969,2244.0,1.0
1923.8010383,127247.234375,127357.4765625,127980.8203125,127548.984375,127480.6796875,127576.4296875,127760.703125,127874.15625,0.399169921875,0.724609375,0.55224609375,-1.8615721464157104,-0.2441406100988388,0.6408690810203552,66.66667175292969,2245.0,1.0
1923.8047776,127322.0703125,127432.3984375,128055.65625,127624.265625,127555.6015625,127651.3515625,127835.7109375,127949.078125,0.3984375,0.724609375,0.5498046875,-1.8310545682907104,-0.1220703050494194,0.6408690810203552,66.66667175292969,2246.0,1.0
1923.8185294,127320.28125,127430.5234375,128053.6875,127622.296875,127553.2734375,127649.390625,127833.65625,127946.9375,0.398681640625,0.72607421875,0.546875,-1.8310545682907104,-0.0915527269244194,0.5493163466453552,66.66667175292969,2247.0,1.0
1923.8216138,127304.9921875,127415.234375,128038.6640625,127606.828125,127538.078125,127634.546875,127818.3671875,127931.828125,0.40087890625,0.7255859375,0.549560546875,-1.8615721464157104,-0.1831054538488388,0.6408690810203552,66.66667175292969,2248.0,1.0
1923.821621,127357.65625,127467.984375,128091.328125,127659.4921875,127591.359375,127687.296875,127871.296875,127984.84375,0.39892578125,0.724609375,0.54931640625,-1.9226073026657104,-0.1831054538488388,0.7019042372703552,66.66667175292969,2249.0,1.0
1923.8235326,127441.0703125,127551.0390625,128174.8359375,127742.8203125,127674.6015625,127770.4453125,127954.7109375,128068.4375,0.39990234375,0.72607421875,0.55029296875,-1.8615721464157104,-0.0915527269244194,0.7629393935203552,66.66667175292969,2250.0,1.0
1923.827273,127453.5,127563.5546875,128187.171875,127755.421875,127687.1171875,127782.78125,127966.9609375,128080.7734375,0.39990234375,0.72314453125,0.54541015625,-1.9226073026657104,-0.2746581733226776,0.6408690810203552,66.66667175292969,2251.0,1.0
1923.8366093,127429.4453125,127539.5078125,128162.4921875,127731.015625,127662.796875,127758.4609375,127942.640625,128056.3671875,0.4013671875,0.72412109375,0.54541015625,-1.8615721464157104,-0.2441406100988388,0.6713866591453552,66.66667175292969,2252.0,1.0
1923.8366162,127469.0546875,127579.1171875,128202.28125,127770.984375,127702.2265625,127798.25,127982.25,128095.9765625,0.400634765625,0.722900390625,0.549560546875,-1.9836424589157104,-0.1831054538488388,0.7019042372703552,66.66667175292969,2253.0,1.0
1923.8391053,127555.8671875,127665.8359375,128289.2734375,127857.703125,127789.4921875,127885.2421875,128068.9765625,128183.0546875,0.398193359375,0.72265625,0.548095703125,-1.9226073026657104,-0.2746581733226776,0.7019042372703552,66.66667175292969,2254.0,1.0
1923.8391103,127581.078125,127691.140625,128314.3046875,127882.921875,127814.8828125,127910.453125,128094.1015625,128208.453125,0.400146484375,0.723388671875,0.54833984375,-1.9836424589157104,-0.2136230319738388,0.7019042372703552,66.66667175292969,2255.0,1.0
1923.8547773,127551.84375,127662.0859375,128285.1640625,127853.859375,127785.640625,127880.953125,128064.859375,128179.03125,0.400390625,0.72216796875,0.549560546875,-2.014159917831421,-0.3051757514476776,0.6103515028953552,66.66667175292969,2256.0,1.0
1923.8578561,127580.3671875,127690.25,128313.6796875,127882.203125,127813.71875,127909.4765625,128093.6484375,128207.2890625,0.400634765625,0.725830078125,0.549560546875,-1.9531248807907104,-0.2441406100988388,0.6713866591453552,66.66667175292969,2257.0,1.0
1923.8578615,127665.6640625,127775.8984375,128399.2421875,127967.5,127899.28125,127994.859375,128178.5859375,128292.9375,0.401611328125,0.725341796875,0.549560546875,-2.014159917831421,-0.2136230319738388,0.7324218153953552,66.66667175292969,2258.0,1.0
1923.8597787,127705.4453125,127815.59375,128438.8515625,128007.28125,127938.6171875,128034.9140625,128218.5546875,128332.6328125,0.401611328125,0.724853515625,0.548828125,-1.8615721464157104,-0.3051757514476776,0.7324218153953552,66.66667175292969,2259.0,1.0
1923.8635302,127678.7109375,127788.953125,128412.4765625,127980.8203125,127911.9765625,128008.359375,128192.0,128305.8125,0.39990234375,0.72265625,0.5478515625,-1.9226073026657104,-0.1831054538488388,0.7629393935203552,66.66667175292969,2260.0,1.0
1923.8678674,127694.8984375,127805.1328125,128428.5703125,127996.734375,127927.9765625,128024.1796875,128208.0,128321.640625,0.3994140625,0.724609375,0.54638671875,-1.8615721464157104,-0.2441406100988388,0.7324218153953552,66.66667175292969,2261.0,1.0
1923.8678746,127776.2578125,127886.765625,128509.6640625,128078.1875,128009.6953125,128106.078125,128289.453125,128403.0859375,0.400146484375,0.725341796875,0.550537109375,-2.044677495956421,-0.3051757514476776,0.7629393935203552,66.66667175292969,2262.0,1.0
1923.8710268,127828.6484375,127939.421875,128562.140625,128130.84375,128062.359375,128158.203125,128341.9375,128455.5703125,0.399658203125,0.725341796875,0.548095703125,-2.044677495956421,-0.3051757514476776,0.7934569716453552,66.66667175292969,2263.0,1.0
1923.8847777,127804.8671875,127915.375,128538.453125,128107.5078125,128038.484375,128134.2421875,128318.421875,128431.96875,0.399658203125,0.724609375,0.548095703125,-1.9226073026657104,-0.2746581733226776,0.6713866591453552,66.66667175292969,2264.0,1.0
1923.8878341,127810.234375,127920.7421875,128544.0859375,128112.78125,128044.03125,128140.234375,128324.0546875,128437.421875,0.399169921875,0.725341796875,0.544921875,-1.8310545682907104,-0.1831054538488388,0.6713866591453552,66.66667175292969,2265.0,1.0
1923.8878401,127882.296875,127992.9765625,128616.234375,128184.6640625,128116.5390625,128212.3828125,128396.3828125,128509.84375,0.3984375,0.726318359375,0.54736328125,-1.8615721464157104,-0.2441406100988388,0.7019042372703552,66.66667175292969,2266.0,1.0
1923.8896326,127948.2734375,128059.40625,128682.3984375,128250.6484375,128182.609375,128278.546875,128462.2734375,128576.09375,0.39990234375,0.722412109375,0.550537109375,-1.9226073026657104,-0.3356933295726776,0.7629393935203552,66.66667175292969,2267.0,1.0
1923.8985384,127936.7421875,128047.4296875,128671.1328125,128239.203125,128170.8984375,128266.4765625,128450.65625,128564.203125,0.401611328125,0.72314453125,0.550537109375,-2.014159917831421,-0.3967284858226776,0.7324218153953552,66.66667175292969,2268.0,1.0
1923.9010316,127929.3203125,128039.46875,128663.4453125,128231.4296875,128163.1171875,128258.875,128442.609375,128556.6875,0.401611328125,0.724365234375,0.546630859375,-2.044677495956421,-0.2746581733226776,0.6713866591453552,66.66667175292969,2269.0,1.0
1923.9035257,127989.9375,128100.1796875,128724.4140625,128292.1328125,128223.9140625,128319.9375,128503.5859375,128617.578125,0.399658203125,0.72265625,0.54736328125,-2.105712652206421,-0.2441406100988388,0.7324218153953552,66.66667175292969,2270.0,1.0
1923.9104269,128066.828125,128176.9765625,128801.125,128368.84375,128300.625,128396.828125,128580.46875,128694.015625,0.40087890625,0.723388671875,0.547119140625,-2.014159917831421,-0.1831054538488388,0.7019042372703552,66.66667175292969,2271.0,1.0
1923.9104342,128068.078125,128178.140625,128802.0234375,128369.7421875,128301.8828125,128397.90625,128581.8125,128695.1796875,0.401611328125,0.724853515625,0.54931640625,-1.9531248807907104,-0.1525878757238388,0.6713866591453552,66.66667175292969,2272.0,1.0
1923.9235269,128049.75,128160.2578125,128783.9609375,128351.5,128283.5546875,128379.578125,128563.578125,128677.125,0.401123046875,0.7255859375,0.55126953125,-1.9226073026657104,-0.1525878757238388,0.6713866591453552,66.66667175292969,2273.0,1.0
1923.9284751,128098.2109375,128208.8984375,128832.9609375,128400.5,128332.1875,128428.03125,128612.125,128726.0234375,0.40087890625,0.724365234375,0.5498046875,-1.8615721464157104,-0.1831054538488388,0.7019042372703552,66.66667175292969,2274.0,1.0
1923.9284822,128181.2734375,128291.7734375,128915.75,128483.46875,128415.3359375,128510.9140625,128695.0,128808.8203125,0.40087890625,0.72314453125,0.5478515625,-1.8310545682907104,-0.2746581733226776,0.5798339247703552,66.66667175292969,2275.0,1.0
1923.9284846,128196.109375,128306.53125,128930.4140625,128498.3046875,128430.359375,128525.84375,128709.7578125,128823.65625,0.40185546875,0.724853515625,0.549072265625,-1.8615721464157104,-0.2136230319738388,0.6103515028953552,66.66667175292969,2276.0,1.0
1923.9341199,128171.703125,128282.296875,128905.734375,128473.8125,128405.6796875,128501.5234375,128685.6171875,128799.0703125,0.40087890625,0.724853515625,0.5478515625,-1.9531248807907104,-0.2441406100988388,0.6713866591453552,66.66667175292969,2277.0,1.0
1923.9341274,128208.5390625,128318.78125,128942.390625,128510.5546875,128442.25,128537.828125,128722.1796875,128836.0,0.39990234375,0.725830078125,0.550048828125,-1.8920897245407104,-0.2441406100988388,0.7629393935203552,66.66667175292969,2278.0,1.0
1923.9360324,128295.9765625,128406.3046875,129030.28125,128598.53125,128529.8671875,128625.625,128809.890625,128923.703125,0.400146484375,0.72314453125,0.548095703125,-1.8920897245407104,-0.2136230319738388,0.7629393935203552,66.66667175292969,2279.0,1.0
1923.9397744,128324.859375,128435.1875,129059.25,128627.3203125,128558.8359375,128654.7734375,128838.765625,128952.3125,0.400390625,0.723876953125,0.550048828125,-1.9836424589157104,-0.1220703050494194,0.7019042372703552,66.66667175292969,2280.0,1.0
1923.9841175,128295.796875,128406.0390625,129030.1015625,128598.4453125,128529.78125,128625.7109375,128809.8046875,128923.4375,0.400634765625,0.725830078125,0.54931640625,-1.9836424589157104,-0.2136230319738388,0.7019042372703552,66.66667175292969,2281.0,1.0
1923.9841252,128320.1171875,128430.8046875,129054.5078125,128622.9375,128554.6328125,128650.296875,128833.765625,128948.0234375,0.3994140625,0.724609375,0.550537109375,-1.9836424589157104,-0.1525878757238388,0.6408690810203552,66.66667175292969,2282.0,1.0
1923.9904326,128404.609375,128515.203125,129139.0859375,128707.4296875,128638.8515625,128734.703125,128918.4296875,129032.6953125,0.3984375,0.724365234375,0.55224609375,-1.8920897245407104,-0.1525878757238388,0.7019042372703552,66.66667175292969,2283.0,1.0
1923.9904397,128449.2265625,128559.5546875,129183.34375,128751.5078125,128682.9296875,128779.046875,128962.6875,129076.953125,0.39794921875,0.725341796875,0.5498046875,-1.9226073026657104,-0.2136230319738388,0.7629393935203552,66.66667175292969,2284.0,1.0
1923.990442,128421.8671875,128532.4609375,129155.8984375,128724.0625,128655.9296875,128751.7734375,128935.2421875,129049.6796875,0.399169921875,0.72607421875,0.55224609375,-1.9531248807907104,-0.2136230319738388,0.7629393935203552,66.66667175292969,2285.0,1.0
1923.9904439,128434.109375,128544.796875,129168.5,128736.21875,128668.5390625,128764.203125,128948.0234375,129061.75,0.399658203125,0.72509765625,0.550048828125,-1.8310545682907104,-0.2441406100988388,0.6408690810203552,66.66667175292969,2286.0,1.0
1923.990446,128511.8984375,128622.671875,129246.109375,128814.2734375,128746.3203125,128842.1640625,129025.984375,129139.7109375,0.4013671875,0.72607421875,0.54931640625,-1.9226073026657104,-0.2136230319738388,0.6713866591453552,66.66667175292969,2287.0,1.0
1923.9904479,128569.7421875,128680.34375,129303.8671875,128872.2109375,128803.8125,128899.7421875,129083.65625,129197.3828125,0.399658203125,0.72607421875,0.548828125,-1.9226073026657104,-0.2441406100988388,0.6103515028953552,66.66667175292969,2288.0,1.0
1923.99045,128549.625,128659.7734375,129283.75,128851.9140625,128783.515625,128879.2734375,129063.359375,129176.90625,0.40087890625,0.725341796875,0.55078125,-1.8615721464157104,-0.2441406100988388,0.6713866591453552,66.66667175292969,2289.0,1.0
1923.9928841,128550.609375,128660.9375,129284.8203125,128852.8046875,128784.140625,128880.4296875,129064.34375,129178.0703125,0.40087890625,0.7236328125,0.5498046875,-1.8310545682907104,-0.1525878757238388,0.6713866591453552,66.66667175292969,2290.0,1.0
1923.9928913,128620.796875,128731.125,129355.2734375,128923.4375,128854.234375,128951.0625,129134.8828125,129248.34375,0.398681640625,0.722900390625,0.548828125,-1.8920897245407104,-0.1525878757238388,0.6713866591453552,66.66667175292969,2291.0,1.0
1923.9946433,128686.8671875,128797.640625,129421.5234375,128989.6015625,128921.0234375,129017.671875,129201.4921875,129314.953125,0.398681640625,0.725341796875,0.549072265625,-1.8920897245407104,-0.0915527269244194,0.6713866591453552,66.66667175292969,2292.0,1.0
1924.0022766,128676.2265625,128787.0,129411.0625,128978.8671875,128910.3828125,129006.5859375,129190.8515625,129304.21875,0.4013671875,0.72509765625,0.548828125,-1.8615721464157104,-0.1525878757238388,0.7629393935203552,66.66667175292969,2293.0,1.0
1924.0047803,128667.9140625,128778.421875,129402.65625,128970.640625,128901.890625,128998.09375,129182.5390625,129295.7265625,0.397705078125,0.726318359375,0.5498046875,-1.9531248807907104,-0.0915527269244194,0.7324218153953552,66.66667175292969,2294.0,1.0
1924.0072844,128728.53125,128838.9453125,129462.921875,129030.90625,128962.6875,129058.4453125,129242.9765625,129356.2578125,0.39892578125,0.725341796875,0.546630859375,-1.9836424589157104,-0.2441406100988388,0.7019042372703552,66.66667175292969,2295.0,1.0
1924.0097963,128804.8828125,128915.3046875,129539.5390625,129107.6171875,129039.1328125,129135.3359375,129319.6015625,129432.7890625,0.400390625,0.726806640625,0.544921875,-1.9531248807907104,-0.2746581733226776,0.6713866591453552,66.66667175292969,2296.0,1.0
1924.0122765,128804.34375,128914.8515625,129538.9140625,129107.171875,129038.6796875,129134.796875,129318.796875,129432.1640625,0.40185546875,0.727294921875,0.546630859375,-1.9836424589157104,-0.2136230319738388,0.6713866591453552,66.66667175292969,2297.0,1.0
1924.0166109,128784.5,128895.2734375,129519.2421875,129087.765625,129018.8359375,129115.21875,129299.5703125,129412.5859375,0.402587890625,0.726318359375,0.546875,-1.9531248807907104,-0.3356933295726776,0.7019042372703552,66.66667175292969,2298.0,1.0
1924.0166172,128831.2578125,128942.2109375,129566.2734375,129134.3515625,129065.5078125,129161.8828125,129346.0625,129459.1640625,0.40283203125,0.724609375,0.5458984375,-1.8310545682907104,-0.2136230319738388,0.7019042372703552,66.66667175292969,2299.0,1.0
1924.0272837,128916.109375,129026.4375,129650.765625,129218.9296875,129150.0859375,129246.46875,129430.640625,129543.65625,0.39990234375,0.72509765625,0.547607421875,-1.9226073026657104,-0.2746581733226776,0.6713866591453552,66.66667175292969,2300.0,1.0
1924.030433,128932.2890625,129042.6171875,129666.5859375,129234.75,129166.0859375,129262.203125,129446.6484375,129559.8359375,0.399169921875,0.723876953125,0.5517578125,-1.8920897245407104,-0.2441406100988388,0.6713866591453552,66.66667175292969,2301.0,1.0
1924.0304409,128905.9140625,129016.0625,129640.484375,129208.5546875,129139.984375,129235.9140625,129420.453125,129533.8203125,0.400146484375,0.721435546875,0.5517578125,-2.014159917831421,-0.2441406100988388,0.7019042372703552,66.66667175292969,2302.0,1.0
1924.0391039,128940.9609375,129051.3828125,129676.0625,129243.875,129175.5625,129271.3203125,129455.859375,129569.3125,0.40087890625,0.72412109375,0.55322265625,-2.075195074081421,-0.1831054538488388,0.7019042372703552,66.66667175292969,2303.0,1.0
1924.0391092,129025.09375,129135.78125,129760.2890625,129327.9140625,129259.6953125,129355.453125,129539.71875,129653.359375,0.4013671875,0.724365234375,0.552490234375,-2.044677495956421,-0.2136230319738388,0.6103515028953552,66.66667175292969,2304.0,1.0
1924.041028,129057.28125,129167.875,129791.9375,129359.7421875,129291.4375,129387.546875,129571.640625,129685.3671875,0.4013671875,0.724365234375,0.5517578125,-1.9531248807907104,-0.2136230319738388,0.6103515028953552,66.66667175292969,2305.0,1.0
1924.0435343,129028.8515625,129139.265625,129763.1484375,129331.4921875,129262.5546875,129359.2109375,129542.9375,129656.75,0.400146484375,0.724853515625,0.55078125,-1.9531248807907104,-0.2136230319738388,0.6408690810203552,66.66667175292969,2306.0,1.0
1924.0522723,129049.9453125,129160.8125,129784.875,129352.9453125,129284.1953125,129381.0234375,129564.7578125,129678.390625,0.39990234375,0.723388671875,0.548095703125,-1.9836424589157104,-0.2746581733226776,0.6103515028953552,66.66667175292969,2307.0,1.0
1924.0566096,129133.8984375,129244.6796875,129869.3671875,129437.078125,129368.234375,129464.796875,129648.8828125,129762.34375,0.398681640625,0.723388671875,0.549560546875,-1.8920897245407104,-0.2746581733226776,0.6408690810203552,66.66667175292969,2308.0,1.0
1924.0566168,129179.9453125,129290.3671875,129915.3203125,129483.2109375,129413.65625,129510.5703125,129694.484375,129808.03125,0.40087890625,0.724853515625,0.54736328125,-1.8920897245407104,-0.2746581733226776,0.6713866591453552,66.66667175292969,2309.0,1.0
1924.0647762,129152.5,129263.1875,129887.78125,129455.6796875,129386.296875,129483.0390625,129667.2109375,129780.5859375,0.399658203125,0.724609375,0.546875,-1.9226073026657104,-0.1831054538488388,0.7629393935203552,66.66667175292969,2310.0,1.0
1924.067865,129164.390625,129275.2578125,129899.4921875,129467.2109375,129398.546875,129494.8359375,129678.9296875,129792.5625,0.39892578125,0.72509765625,0.549072265625,-1.9531248807907104,-0.2136230319738388,0.7629393935203552,66.66667175292969,2311.0,1.0
1924.0678728,129242.53125,129353.21875,129977.546875,129545.4453125,129476.8671875,129573.4296875,129757.25,129870.703125,0.399169921875,0.725341796875,0.551025390625,-2.014159917831421,-0.1831054538488388,0.7324218153953552,66.66667175292969,2312.0,1.0
1924.0760253,129299.9296875,129410.6171875,130035.03125,129602.9296875,129534.4453125,129631.1796875,129814.828125,129928.28125,0.401123046875,0.72705078125,0.551025390625,-1.9836424589157104,-0.1831054538488388,0.6713866591453552,66.66667175292969,2313.0,1.0
1924.078537,129278.828125,129389.15625,130013.84375,129581.6484375,129513.078125,129609.546875,129793.7265625,129907.09375,0.399658203125,0.7236328125,0.549072265625,-1.9531248807907104,-0.2746581733226776,0.6713866591453552,66.66667175292969,2314.0,1.0
1924.0847791,129277.7578125,129388.0859375,130012.859375,129580.671875,129512.09375,129608.4765625,129792.3828125,129906.0234375,0.3974609375,0.7236328125,0.54638671875,-2.014159917831421,-0.2136230319738388,0.7324218153953552,66.66667175292969,2315.0,1.0
1924.087866,129345.4375,129455.859375,130080.3671875,129648.4375,129579.6875,129676.6015625,129860.515625,129973.703125,0.3984375,0.7265625,0.54833984375,-2.014159917831421,-0.2441406100988388,0.7019042372703552,66.66667175292969,2316.0,1.0
1924.0878732,129416.0703125,129526.84375,130151.171875,129719.15625,129650.4921875,129747.234375,129931.0546875,130044.3359375,0.399169921875,0.7275390625,0.551025390625,-1.9836424589157104,-0.1525878757238388,0.6103515028953552,66.66667175292969,2317.0,1.0
1924.0958762,129407.0390625,129518.0859375,130142.4140625,129710.578125,129641.640625,129738.0234375,129922.2890625,130035.484375,0.39892578125,0.724853515625,0.548828125,-1.9836424589157104,-0.1831054538488388,0.6103515028953552,66.66667175292969,2318.0,1.0
1924.1041063,129395.234375,129506.546875,130130.4296875,129698.5078125,129629.9296875,129726.3125,129910.671875,130023.9453125,0.400390625,0.724609375,0.544189453125,-1.9531248807907104,-0.2136230319738388,0.5798339247703552,66.66667175292969,2319.0,1.0
1924.1041134,129453.3515625,129564.7578125,130188.7265625,129756.7109375,129687.953125,129784.515625,129968.78125,130082.1484375,0.39990234375,0.72412109375,0.549072265625,-1.8615721464157104,-0.2441406100988388,0.6103515028953552,66.66667175292969,2320.0,1.0
1924.1060207,129530.421875,129641.5546875,130266.1484375,129833.78125,129765.203125,129861.4921875,130045.8515625,130159.0390625,0.39990234375,0.72412109375,0.548095703125,-1.9531248807907104,-0.2136230319738388,0.5798339247703552,66.66667175292969,2321.0,1.0
1924.1085451,129533.7265625,129644.6875,130269.1953125,129837.0,129768.3359375,129864.7109375,130048.625,130162.4375,0.400146484375,0.726806640625,0.5439453125,-1.9836424589157104,-0.1831054538488388,0.6713866591453552,66.66667175292969,2322.0,1.0
1924.112276,129514.0625,129624.921875,130249.1640625,129817.0625,129748.21875,129844.8671875,130028.6875,130142.5,0.4013671875,0.72509765625,0.5439453125,-1.9836424589157104,-0.2746581733226776,0.6713866591453552,66.66667175292969,2323.0,1.0
1924.1210265,129558.8515625,129669.8984375,130293.8671875,129861.9453125,129792.921875,129889.8359375,130073.8359375,130187.296875,0.39990234375,0.725830078125,0.54736328125,-1.9836424589157104,-0.2136230319738388,0.7629393935203552,66.66667175292969,2324.0,1.0
1924.1254278,129642.2734375,129753.2265625,130377.640625,129945.2734375,129876.515625,129973.078125,130157.1640625,130270.7109375,0.40087890625,0.723388671875,0.548828125,-1.9531248807907104,-0.1831054538488388,0.8239745497703552,66.66667175292969,2325.0,1.0
1924.125435,129658.8125,129769.4921875,130394.09375,129961.453125,129893.328125,129989.3515625,130173.2578125,130286.890625,0.401123046875,0.72412109375,0.550048828125,-1.9836424589157104,-0.2136230319738388,0.7324218153953552,66.66667175292969,2326.0,1.0
1924.1360274,129630.734375,129741.78125,130365.9296875,129933.9140625,129865.25,129961.6328125,130145.71875,130259.0859375,0.399658203125,0.724365234375,0.549560546875,-1.8920897245407104,-0.2136230319738388,0.6408690810203552,66.66667175292969,2327.0,1.0
1924.1391013,129663.9921875,129774.953125,130398.828125,129966.9921875,129898.15625,129994.4453125,130178.53125,130292.2578125,0.40283203125,0.725830078125,0.54931640625,-1.9531248807907104,-0.2746581733226776,0.7324218153953552,66.66667175292969,2328.0,1.0
1924.1391075,129750.359375,129861.3203125,130485.734375,130053.5390625,129984.4296875,130081.171875,130264.9921875,130378.5390625,0.40234375,0.724365234375,0.54931640625,-1.9836424589157104,-0.2441406100988388,0.7019042372703552,66.66667175292969,2329.0,1.0
1924.1410178,129785.6796875,129896.3671875,130520.78125,130088.6796875,130020.015625,130116.5703125,130300.484375,130413.8515625,0.400634765625,0.7255859375,0.54833984375,-2.014159917831421,-0.2441406100988388,0.7934569716453552,66.66667175292969,2330.0,1.0
1924.1472674,129755.7265625,129866.4140625,130490.828125,130058.8203125,129989.9765625,130086.625,130270.7109375,130384.2578125,0.400634765625,0.724609375,0.54833984375,-1.9226073026657104,-0.2746581733226776,0.6713866591453552,66.66667175292969,2331.0,1.0
1924.1518291,129774.953125,129886.2578125,130510.4140625,130078.21875,130009.4609375,130106.0234375,130290.0234375,130403.484375,0.3994140625,0.723876953125,0.546630859375,-1.8920897245407104,-0.2746581733226776,0.7019042372703552,66.66667175292969,2332.0,1.0
1924.1518364,129857.7421875,129968.9609375,130592.84375,130160.921875,130091.984375,130188.6328125,130372.7265625,130486.09375,0.399169921875,0.724609375,0.548095703125,-1.9226073026657104,-0.1831054538488388,0.7019042372703552,66.66667175292969,2333.0,1.0
1924.159768,129904.765625,130015.9921875,130640.234375,130208.125,130138.921875,130236.0234375,130419.84375,130533.2109375,0.4013671875,0.723876953125,0.55078125,-2.014159917831421,-0.2746581733226776,0.6713866591453552,66.66667175292969,2334.0,1.0
1924.1628589,129878.75,129989.796875,130614.5703125,130181.84375,130113.1796875,130210.09375,130393.9140625,130507.28125,0.399169921875,0.7255859375,0.552001953125,-1.9836424589157104,-0.1831054538488388,0.7324218153953552,66.66667175292969,2335.0,1.0
1924.1628665,129888.046875,129998.734375,130623.5078125,130191.2265625,130122.5625,130219.03125,130402.765625,130516.2265625,0.39892578125,0.725830078125,0.55029296875,-2.075195074081421,-0.3662109076976776,0.7324218153953552,66.66667175292969,2336.0,1.0
1924.1685181,129964.8515625,130075.7109375,130700.4921875,130267.9375,130199.3671875,130295.8359375,130479.7421875,130593.2890625,0.400146484375,0.7255859375,0.547607421875,-2.044677495956421,-0.3051757514476776,0.6408690810203552,66.66667175292969,2337.0,1.0
1924.17229,130024.125,130134.7265625,130759.5859375,130327.578125,130258.734375,130354.84375,130539.0234375,130652.8359375,0.39892578125,0.72509765625,0.549560546875,-1.9836424589157104,-0.3051757514476776,0.6713866591453552,66.66667175292969,2338.0,1.0
1924.1810377,130003.921875,130114.3359375,130739.46875,130306.921875,130238.34375,130334.640625,130518.90625,130632.71875,0.39892578125,0.724609375,0.5517578125,-2.014159917831421,-0.2136230319738388,0.7019042372703552,66.66667175292969,2339.0,1.0
1924.1854266,130002.4921875,130113.265625,130738.1328125,130305.578125,130236.828125,130333.7421875,130517.7421875,130630.9296875,0.4013671875,0.724853515625,0.54833984375,-1.8920897245407104,-0.1831054538488388,0.7324218153953552,66.66667175292969,2340.0,1.0
1924.1854344,130067.7578125,130178.4453125,130803.3984375,130370.84375,130301.734375,130399.0078125,130582.828125,130696.109375,0.398193359375,0.723388671875,0.548828125,-1.8920897245407104,-0.2136230319738388,0.7934569716453552,66.66667175292969,2341.0,1.0
1924.1910264,130137.3125,130247.734375,130872.8671875,130440.2265625,130371.6484375,130468.4765625,130652.65625,130765.578125,0.39892578125,0.723876953125,0.5498046875,-1.9226073026657104,-0.2441406100988388,0.6713866591453552,66.66667175292969,2342.0,1.0
1924.1947876,130128.375,130238.96875,130863.65625,130431.46875,130362.7109375,130459.5390625,130643.1796875,130756.8203125,0.398681640625,0.72509765625,0.550537109375,-1.9226073026657104,-0.1831054538488388,0.6408690810203552,66.66667175292969,2343.0,1.0
1924.2091063,130115.5,130226.546875,130851.140625,130418.9453125,130350.1015625,130446.9296875,130630.3984375,130744.4765625,0.400390625,0.72412109375,0.548583984375,-1.9836424589157104,-0.2746581733226776,0.6103515028953552,66.66667175292969,2344.0,1.0
1924.2091134,130169.7734375,130280.6328125,130905.5,130473.21875,130404.375,130501.203125,130684.84375,130798.484375,0.402099609375,0.723388671875,0.546630859375,-1.9226073026657104,-0.2746581733226776,0.7019042372703552,66.66667175292969,2345.0,1.0
1924.2116051,130249.5234375,130360.7421875,130985.34375,130553.1484375,130484.3046875,130581.21875,130764.8671875,130878.3203125,0.40283203125,0.7236328125,0.54736328125,-1.8615721464157104,-0.3356933295726776,0.6713866591453552,66.66667175292969,2346.0,1.0
1924.2116115,130256.3203125,130367.8984375,130992.765625,130560.03125,130491.0078125,130587.9296875,130771.8359375,130885.296875,0.39990234375,0.724853515625,0.5478515625,-1.9531248807907104,-0.3662109076976776,0.6713866591453552,66.66667175292969,2347.0,1.0
1924.2135221,130234.9453125,130345.7265625,130971.3046875,130538.484375,130469.375,130566.46875,130750.0234375,130863.5703125,0.400390625,0.724609375,0.54736328125,-1.9226073026657104,-0.3356933295726776,0.6408690810203552,66.66667175292969,2348.0,1.0
1924.2172779,130276.078125,130387.2109375,131012.4296875,130579.8828125,130510.6796875,130607.8671875,130791.59375,130905.0546875,0.3984375,0.72412109375,0.54931640625,-1.9836424589157104,-0.1831054538488388,0.7019042372703552,66.66667175292969,2349.0,1.0
1924.2266074,130361.1015625,130471.6953125,131096.65625,130664.3671875,130595.4375,130692.3515625,130876.0859375,130989.6328125,0.398681640625,0.724609375,0.547607421875,-1.9836424589157104,-0.1220703050494194,0.7324218153953552,66.66667175292969,2350.0,1.0
1924.2266147,130382.2890625,130492.9765625,131117.75,130685.203125,130616.1796875,130713.453125,130896.9140625,131010.640625,0.398193359375,0.724853515625,0.5498046875,-1.9531248807907104,-0.1220703050494194,0.6713866591453552,66.66667175292969,2351.0,1.0
1924.2310159,130352.7890625,130463.5625,131088.78125,130655.875,130587.3046875,130684.3046875,130867.953125,130981.40625,0.3994140625,0.723876953125,0.548583984375,-2.044677495956421,-0.2136230319738388,0.5493163466453552,66.66667175292969,2352.0,1.0
1924.2354262,130381.0390625,130492.0859375,131116.40625,130684.3984375,130615.2890625,130712.2890625,130896.46875,131009.65625,0.401123046875,0.724365234375,0.54931640625,-1.9226073026657104,-0.2136230319738388,0.7019042372703552,66.66667175292969,2353.0,1.0
1924.2354316,130465.3515625,130576.3046875,131200.71875,130768.796875,130699.4140625,130796.78125,130980.6015625,131094.15625,0.400390625,0.724853515625,0.552001953125,-1.9226073026657104,-0.2746581733226776,0.7629393935203552,66.66667175292969,2354.0,1.0
1924.2372772,130502.71875,130613.6796875,131238.546875,130806.53125,130737.4140625,130834.421875,131018.15625,131131.703125,0.400146484375,0.726806640625,0.55029296875,-1.8310545682907104,-0.1831054538488388,0.7019042372703552,66.66667175292969,2355.0,1.0
1924.2460189,130472.0546875,130583.0078125,131208.140625,130776.0390625,130706.65625,130803.84375,130987.578125,131101.125,0.401123046875,0.7255859375,0.547119140625,-1.8005369901657104,-0.2441406100988388,0.6408690810203552,66.66667175292969,2356.0,1.0
1924.2554234,130488.8671875,130600.0,131225.21875,130793.203125,130723.828125,130820.65625,131004.65625,131118.109375,0.401123046875,0.725341796875,0.551025390625,-1.8310545682907104,-0.3051757514476776,0.6713866591453552,66.66667175292969,2357.0,1.0
1924.2554296,130571.5625,130682.875,131307.75,130875.8203125,130806.6171875,130903.4453125,131087.171875,131200.546875,0.399658203125,0.722900390625,0.549560546875,-1.8615721464157104,-0.3051757514476776,0.7324218153953552,66.66667175292969,2358.0,1.0
1924.2628563,130620.5625,130731.6953125,131356.65625,130924.453125,130855.2578125,130952.53125,131135.90625,131249.546875,0.40087890625,0.725341796875,0.54638671875,-1.8615721464157104,-0.2136230319738388,0.7019042372703552,66.66667175292969,2359.0,1.0
1924.2628627,130592.84375,130704.15625,131329.296875,130896.6484375,130827.71875,130924.8984375,131108.28125,131221.90625,0.400634765625,0.7236328125,0.5478515625,-1.9531248807907104,-0.2746581733226776,0.7324218153953552,66.66667175292969,2360.0,1.0
1924.2647711,130598.4765625,130709.875,131335.375,130902.640625,130833.796875,130930.625,131114.53125,131227.984375,0.400634765625,0.724365234375,0.54541015625,-1.9836424589157104,-0.2136230319738388,0.6408690810203552,66.66667175292969,2361.0,1.0
1924.2672878,130674.7421875,130786.0546875,131411.546875,130978.9921875,130909.6171875,131006.7109375,131190.984375,131304.4375,0.398193359375,0.724365234375,0.54736328125,-1.8005369901657104,-0.2136230319738388,0.7324218153953552,66.66667175292969,2362.0,1.0
1924.2760167,130736.96875,130848.1015625,131473.234375,131041.1328125,130971.84375,131068.7578125,131252.671875,131366.484375,0.3984375,0.725830078125,0.549072265625,-1.9226073026657104,-0.3051757514476776,0.7934569716453552,66.66667175292969,2363.0,1.0
1924.2828553,130719.53125,130830.4921875,131455.71875,131023.3359375,130954.2265625,131051.3203125,131235.234375,131348.6875,0.39892578125,0.724853515625,0.549072265625,-1.8005369901657104,-0.1831054538488388,0.6408690810203552,66.66667175292969,2364.0,1.0
1924.2828612,130714.6171875,130826.2890625,131451.15625,131018.5078125,130949.578125,131046.4921875,131230.671875,131343.859375,0.399658203125,0.725341796875,0.54931640625,-1.8310545682907104,-0.2746581733226776,0.5493163466453552,66.66667175292969,2365.0,1.0
1924.2854188,130778.453125,130889.8515625,131514.8125,131082.078125,131013.328125,131110.328125,131294.25,131407.609375,0.400634765625,0.726806640625,0.55126953125,-1.9226073026657104,-0.2441406100988388,0.6103515028953552,66.66667175292969,2366.0,1.0
1924.2854222,130850.0703125,130961.109375,131586.328125,131153.6875,131084.84375,131182.03125,131365.953125,131479.3125,0.400390625,0.726318359375,0.548583984375,-1.8310545682907104,-0.2746581733226776,0.6103515028953552,66.66667175292969,2367.0,1.0
1924.2985387,130843.1875,130954.4921875,131579.71875,131147.34375,131078.234375,131175.15625,131359.234375,131472.703125,0.400146484375,0.72314453125,0.55078125,-1.8615721464157104,-0.2136230319738388,0.6408690810203552,66.66667175292969,2368.0,1.0
1924.3059477,130829.0546875,130940.3671875,131565.59375,131133.125,131064.0234375,131160.9375,131344.671875,131458.484375,0.400146484375,0.724609375,0.548095703125,-1.8920897245407104,-0.1831054538488388,0.6408690810203552,66.66667175292969,2369.0,1.0
1924.3059546,130880.5546875,130991.9609375,131617.453125,131184.453125,131115.609375,131212.609375,131396.25,131509.53125,0.398681640625,0.72509765625,0.547119140625,-1.8005369901657104,-0.1220703050494194,0.6713866591453552,66.66667175292969,2370.0,1.0
1924.3059571,130959.7734375,131070.90625,131696.3125,131263.578125,131194.546875,131291.5625,131475.5625,131588.390625,0.40087890625,0.724365234375,0.550537109375,-1.8310545682907104,-0.2441406100988388,0.7019042372703552,66.66667175292969,2371.0,1.0
1924.3102073,130970.4140625,131081.359375,131706.9375,131273.953125,131205.109375,131302.109375,131486.203125,131599.390625,0.402587890625,0.724609375,0.548095703125,-1.9531248807907104,-0.3051757514476776,0.6713866591453552,66.66667175292969,2372.0,1.0
1924.310212,130947.1640625,131058.4765625,131683.515625,131251.0625,131182.3125,131279.3125,131463.484375,131576.328125,0.401123046875,0.72265625,0.550048828125,-1.8920897245407104,-0.2441406100988388,0.7324218153953552,66.66667175292969,2373.0,1.0
1924.3172671,130986.4140625,131098.078125,131722.953125,131290.390625,131221.640625,131318.65625,131502.828125,131615.75,0.401123046875,0.722900390625,0.54833984375,-1.9226073026657104,-0.2441406100988388,0.7324218153953552,66.66667175292969,2374.0,1.0
1924.3260173,131070.6328125,131182.3125,131807.53125,131374.703125,131305.59375,131402.421875,131586.328125,131699.96875,0.400634765625,0.72119140625,0.54638671875,-2.014159917831421,-0.1831054538488388,0.6713866591453552,66.66667175292969,2375.0,1.0
1924.3397011,131092.453125,131203.859375,131829.171875,131396.703125,131327.59375,131424.515625,131608.15625,131722.0625,0.400146484375,0.72216796875,0.548828125,-1.8920897245407104,-0.2136230319738388,0.6103515028953552,66.66667175292969,2376.0,1.0
1924.3397075,131065.0,131176.140625,131801.71875,131369.078125,131300.234375,131397.234375,131580.96875,131694.609375,0.4013671875,0.72314453125,0.550048828125,-1.8920897245407104,-0.2441406100988388,0.6103515028953552,66.66667175292969,2377.0,1.0
1924.3397097,131091.640625,131203.046875,131828.53125,131395.71875,131327.0625,131423.875,131607.609375,131721.34375,0.40087890625,0.72412109375,0.550537109375,-1.8615721464157104,-0.1831054538488388,0.6408690810203552,66.66667175292969,2378.0,1.0
1924.3428527,131174.171875,131285.921875,131911.234375,131478.515625,131409.9375,131506.765625,131690.578125,131804.3125,0.401123046875,0.725830078125,0.544189453125,-1.9226073026657104,-0.2746581733226776,0.7019042372703552,66.66667175292969,2379.0,1.0
1924.3428562,131213.0625,131324.8125,131950.125,131517.484375,131448.640625,131545.46875,131729.921875,131843.203125,0.397705078125,0.726318359375,0.547119140625,-1.9226073026657104,-0.2746581733226776,0.7324218153953552,66.66667175292969,2380.0,1.0
1924.344772,131184.1875,131295.9375,131921.078125,131488.171875,131419.5,131516.421875,131700.421875,131814.140625,0.397216796875,0.7236328125,0.548828125,-1.9226073026657104,-0.2136230319738388,0.6713866591453552,66.66667175292969,2381.0,1.0
1924.3472762,131199.296875,131310.78125,131936.28125,131503.453125,131434.609375,131531.625,131715.171875,131828.984375,0.3994140625,0.72509765625,0.54638671875,-1.8920897245407104,-0.1525878757238388,0.6408690810203552,66.66667175292969,2382.0,1.0
1924.3610172,131279.9375,131391.515625,132016.921875,131584.1875,131515.25,131612.359375,131796.078125,131909.625,0.398681640625,0.724853515625,0.55078125,-1.9836424589157104,-0.2136230319738388,0.7324218153953552,66.66667175292969,2383.0,1.0
1924.3654285,131331.96875,131443.109375,132068.5,131635.59375,131566.84375,131663.84375,131847.765625,131961.390625,0.400390625,0.723876953125,0.5498046875,-1.9836424589157104,-0.1525878757238388,0.7019042372703552,66.66667175292969,2384.0,1.0
1924.365436,131307.5625,131418.875,132044.546875,131611.015625,131542.25,131639.171875,131823.4375,131936.90625,0.400146484375,0.7265625,0.55078125,-1.9531248807907104,-0.2441406100988388,0.6713866591453552,66.66667175292969,2385.0,1.0
1924.3716043,131310.875,131422.0,132047.578125,131614.3125,131545.203125,131642.65625,131826.84375,131940.125,0.399169921875,0.725341796875,0.551513671875,-2.044677495956421,-0.2746581733226776,0.6408690810203552,66.66667175292969,2386.0,1.0
1924.3716109,131380.34375,131491.390625,132116.96875,131684.234375,131614.953125,131712.671875,131896.484375,132009.953125,0.399658203125,0.724853515625,0.54931640625,-1.9226073026657104,-0.2441406100988388,0.7629393935203552,66.66667175292969,2387.0,1.0
1924.3854233,131444.359375,131555.765625,132181.515625,131748.703125,131679.765625,131776.859375,131960.765625,132074.40625,0.400146484375,0.72265625,0.548583984375,-1.9226073026657104,-0.2746581733226776,0.7324218153953552,66.66667175292969,2388.0,1.0
1924.3854292,131427.28125,131538.859375,132164.625,131731.796875,131662.78125,131759.875,131943.78125,132057.0625,0.39990234375,0.723876953125,0.548583984375,-1.8920897245407104,-0.2441406100988388,0.6408690810203552,66.66667175292969,2389.0,1.0
1924.3878536,131420.578125,131532.328125,132157.5625,131724.734375,131655.71875,131752.90625,131936.984375,132050.171875,0.401611328125,0.723876953125,0.55029296875,-1.9226073026657104,-0.2136230319738388,0.6408690810203552,66.66667175292969,2390.0,1.0
1924.3878622,131482.71875,131594.65625,132220.046875,131787.234375,131718.203125,131815.21875,131999.3125,132112.859375,0.400390625,0.7236328125,0.55029296875,-1.9226073026657104,-0.3051757514476776,0.7019042372703552,66.66667175292969,2391.0,1.0
1924.3904211,131556.390625,131667.78125,132293.09375,131860.375,131791.796875,131888.703125,132072.625,132185.890625,0.401123046875,0.723388671875,0.550048828125,-1.9836424589157104,-0.2746581733226776,0.7324218153953552,66.66667175292969,2392.0,1.0
1924.3904252,131553.515625,131664.828125,132290.5,131857.5,131788.578125,131885.9375,132069.40625,132182.6875,0.399658203125,0.722900390625,0.5498046875,-1.9531248807907104,-0.2136230319738388,0.7629393935203552,66.66667175292969,2393.0,1.0
1924.407199,131536.890625,131648.296875,132273.96875,131840.515625,131771.671875,131869.3125,132052.6875,132166.5,0.39990234375,0.723876953125,0.548095703125,-1.8615721464157104,-0.2746581733226776,0.7934569716453552,66.66667175292969,2394.0,1.0
1924.4072066,131585.890625,131697.296875,132322.875,131889.78125,131820.9375,131918.21875,132102.03125,132215.765625,0.399169921875,0.7236328125,0.550048828125,-1.9226073026657104,-0.1525878757238388,0.6713866591453552,66.66667175292969,2395.0,1.0
1924.4072089,131666.71875,131777.75,132403.6875,131970.609375,131901.9375,131999.390625,132182.953125,132296.40625,0.39794921875,0.723388671875,0.54638671875,-1.9836424589157104,-0.1831054538488388,0.6103515028953552,66.66667175292969,2396.0,1.0
1924.4097634,131676.453125,131787.40625,132413.34375,131980.265625,131911.59375,132008.78125,132192.328125,132305.875,0.399169921875,0.724609375,0.547119140625,-1.8920897245407104,-0.2136230319738388,0.7019042372703552,66.66667175292969,2397.0,1.0
1924.4122307,131651.609375,131762.5625,132388.578125,131955.40625,131886.828125,131984.015625,132167.75,132281.203125,0.39794921875,0.72607421875,0.548583984375,-1.8615721464157104,-0.2746581733226776,0.7629393935203552,66.66667175292969,2398.0,1.0
1924.421029,131687.28125,131798.40625,132424.53125,131991.171875,131922.328125,132019.78125,132203.59375,132317.140625,0.3994140625,0.726806640625,0.54931640625,-1.8310545682907104,-0.2136230319738388,0.6713866591453552,66.66667175292969,2399.0,1.0
1924.4260279,131771.234375,131882.71875,132508.484375,132075.65625,132006.640625,132104.0,132287.828125,132401.28125,0.400390625,0.7255859375,0.550537109375,-1.8615721464157104,-0.1831054538488388,0.6103515028953552,66.66667175292969,2400.0,1.0
1924.4285098,131796.625,131908.203125,132533.78125,132101.046875,132031.84375,132129.125,132312.953125,132426.578125,0.400634765625,0.725830078125,0.550048828125,-1.8920897245407104,-0.2136230319738388,0.7324218153953552,66.66667175292969,2401.0,1.0
1924.4310081,131769.0,131880.484375,132505.796875,132073.328125,132004.21875,132101.59375,132285.140625,132398.78125,0.39990234375,0.724609375,0.55078125,-2.014159917831421,-0.1525878757238388,0.7324218153953552,66.66667175292969,2402.0,1.0
1924.4404249,131793.40625,131905.078125,132530.5625,132097.5625,132028.71875,132126.265625,132309.734375,132423.0,0.399169921875,0.724853515625,0.549072265625,-2.075195074081421,-0.1831054538488388,0.7019042372703552,66.66667175292969,2403.0,1.0
1924.4404322,131876.546875,131988.125,132613.890625,132180.890625,132111.875,132209.5,132393.140625,132506.421875,0.39990234375,0.724365234375,0.5498046875,-1.9531248807907104,-0.1220703050494194,0.5798339247703552,66.66667175292969,2404.0,1.0
1924.4422693,131917.140625,132028.71875,132654.84375,132221.484375,132152.734375,132250.1875,132433.640625,132547.375,0.40283203125,0.72509765625,0.549072265625,-1.9531248807907104,-0.2746581733226776,0.5493163466453552,66.66667175292969,2405.0,1.0
1924.4447815,131888.078125,131999.84375,132625.328125,132192.875,132123.765625,132221.125,132404.953125,132518.5,0.40087890625,0.72412109375,0.551025390625,-1.9531248807907104,-0.1831054538488388,0.5493163466453552,66.66667175292969,2406.0,1.0
1924.4653452,131900.78125,132012.8125,132638.03125,132205.484375,132136.359375,132233.828125,132417.640625,132531.1875,0.401611328125,0.7236328125,0.54833984375,-1.8615721464157104,-0.1831054538488388,0.5187987685203552,66.66667175292969,2407.0,1.0
1924.465353,131978.828125,132091.125,132716.703125,132283.984375,132214.78125,132312.40625,132495.96875,132609.15625,0.40185546875,0.7216796875,0.55029296875,-1.8920897245407104,-0.1525878757238388,0.5798339247703552,66.66667175292969,2408.0,1.0
1924.4653554,132033.375,132145.21875,132770.890625,132338.25,132268.78125,132366.5,132550.40625,132663.515625,0.399169921875,0.72412109375,0.5498046875,-1.9226073026657104,-0.2136230319738388,0.6408690810203552,66.66667175292969,2409.0,1.0
1924.4653576,132009.234375,132120.984375,132746.296875,132313.84375,132244.453125,132342.453125,132526.0,132639.1875,0.400634765625,0.72607421875,0.548583984375,-1.9226073026657104,-0.2746581733226776,0.7019042372703552,66.66667175292969,2410.0,1.0
1924.4672573,132009.3125,132121.25,132746.84375,132314.109375,132244.734375,132342.71875,132526.09375,132639.546875,0.399169921875,0.722900390625,0.5517578125,-1.8920897245407104,-0.2136230319738388,0.6713866591453552,66.66667175292969,2411.0,1.0
1924.4697739,132079.421875,132191.265625,132817.109375,132384.46875,132314.90625,132412.90625,132596.640625,132709.5625,0.400146484375,0.724609375,0.552001953125,-1.9836424589157104,-0.1831054538488388,0.6713866591453552,66.66667175292969,2412.0,1.0
1924.4722769,132145.21875,132256.984375,132882.734375,132450.359375,132380.09375,132478.703125,132662.171875,132775.53125,0.3994140625,0.724365234375,0.5498046875,-1.8615721464157104,-0.2441406100988388,0.6713866591453552,66.66667175292969,2413.0,1.0
1924.4785167,132132.4375,132243.921875,132869.765625,132436.953125,132367.578125,132465.46875,132649.03125,132762.75,0.3994140625,0.724609375,0.549560546875,-1.8615721464157104,-0.1831054538488388,0.7019042372703552,66.66667175292969,2414.0,1.0
1924.4828543,132123.046875,132234.890625,132860.46875,132427.5625,132358.546875,132456.359375,132640.0,132753.1875,0.400390625,0.72265625,0.5478515625,-1.8615721464157104,-0.1831054538488388,0.7019042372703552,66.66667175292969,2415.0,1.0
1924.4828607,132181.34375,132293.546875,132918.765625,132485.953125,132416.84375,132514.5625,132698.203125,132811.5625,0.400146484375,0.723876953125,0.550048828125,-1.8615721464157104,-0.1831054538488388,0.6408690810203552,66.66667175292969,2416.0,1.0
1924.4935121,132257.609375,132369.625,132994.859375,132562.21875,132493.1875,132590.640625,132774.203125,132887.921875,0.40087890625,0.72412109375,0.550537109375,-1.8920897245407104,-0.2136230319738388,0.6408690810203552,66.66667175292969,2417.0,1.0
1924.4965954,132255.015625,132366.859375,132992.703125,132559.625,132490.515625,132588.59375,132771.6875,132885.515625,0.401123046875,0.724853515625,0.54931640625,-1.8615721464157104,-0.2746581733226776,0.6713866591453552,66.66667175292969,2418.0,1.0
1924.4965996,132236.59375,132348.171875,132974.375,132541.203125,132472.171875,132569.90625,132753.453125,132867.265625,0.399169921875,0.7236328125,0.54833984375,-1.9226073026657104,-0.2136230319738388,0.7324218153953552,66.66667175292969,2419.0,1.0
1924.4985094,132283.171875,132394.578125,133021.140625,132587.96875,132518.5,132616.125,132800.296875,132913.671875,0.399169921875,0.72265625,0.548583984375,-1.9226073026657104,-0.3662109076976776,0.7629393935203552,66.66667175292969,2420.0,1.0
1924.507265,132365.421875,132476.921875,133103.296875,132670.390625,132600.65625,132698.640625,132882.109375,132996.015625,0.4013671875,0.723388671875,0.5517578125,-1.9531248807907104,-0.2746581733226776,0.7629393935203552,66.66667175292969,2421.0,1.0
1924.5116082,132378.65625,132490.0625,133116.359375,132683.1875,132613.53125,132711.96875,132895.34375,133008.796875,0.400390625,0.723876953125,0.55078125,-1.8920897245407104,-0.2441406100988388,0.8239745497703552,66.66667175292969,2422.0,1.0
1924.5116135,132353.09375,132464.84375,133090.609375,132657.515625,132588.140625,132686.484375,132869.859375,132983.40625,0.3994140625,0.724609375,0.5517578125,-1.8920897245407104,-0.2136230319738388,0.7629393935203552,66.66667175292969,2423.0,1.0
1924.5196138,132388.765625,132500.078125,133126.015625,132693.28125,132623.71875,132721.796875,132905.359375,133019.0,0.39892578125,0.72412109375,0.55078125,-1.9226073026657104,-0.3051757514476776,0.6713866591453552,66.66667175292969,2424.0,1.0
1924.5278527,132470.484375,132582.15625,133208.171875,132775.453125,132705.53125,132803.875,132987.515625,133101.34375,0.40185546875,0.72412109375,0.5498046875,-1.9531248807907104,-0.2746581733226776,0.7019042372703552,66.66667175292969,2425.0,1.0
1924.5278594,132498.640625,132610.484375,133236.515625,132803.703125,132734.140625,132832.125,133015.953125,133129.40625,0.40087890625,0.724853515625,0.546875,-2.014159917831421,-0.3051757514476776,0.6103515028953552,66.66667175292969,2426.0,1.0
1924.5297614,132467.53125,132579.734375,133205.671875,132772.859375,132703.296875,132801.28125,132984.75,133098.296875,0.400390625,0.7236328125,0.5478515625,-1.8920897245407104,-0.2136230319738388,0.7019042372703552,66.66667175292969,2427.0,1.0
1924.5322695,132490.515625,132602.71875,133228.46875,132795.921875,132726.1875,132824.4375,133007.546875,133121.71875,0.400390625,0.722900390625,0.548583984375,-1.9836424589157104,-0.2746581733226776,0.7629393935203552,66.66667175292969,2428.0,1.0
1924.5360117,132573.03125,132685.140625,133311.265625,132878.796875,132808.96875,132907.234375,133090.421875,133204.25,0.3994140625,0.724853515625,0.548095703125,-1.8615721464157104,-0.1831054538488388,0.7019042372703552,66.66667175292969,2429.0,1.0
1924.5447645,132614.875,132726.8125,133353.109375,132920.375,132850.640625,132948.890625,133132.453125,133245.8125,0.3994140625,0.72314453125,0.5498046875,-1.8920897245407104,-0.1831054538488388,0.6713866591453552,66.66667175292969,2430.0,1.0
1924.5490949,132584.65625,132696.5,133322.890625,132889.984375,132820.328125,132918.40625,133102.046875,133215.421875,0.3984375,0.72412109375,0.55078125,-1.7700194120407104,-0.1525878757238388,0.7019042372703552,66.66667175292969,2431.0,1.0
1924.5491005,132595.5625,132707.40625,133333.53125,132900.796875,132830.96875,132929.046875,133112.609375,133225.96875,0.398681640625,0.72265625,0.55078125,-1.8920897245407104,-0.2136230319738388,0.6713866591453552,66.66667175292969,2432.0,1.0
1924.5597628,132672.8125,132785.1875,133410.78125,132978.671875,132908.484375,133006.46875,133189.84375,133303.671875,0.401123046875,0.723876953125,0.548095703125,-1.8920897245407104,-0.1220703050494194,0.7324218153953552,66.66667175292969,2433.0,1.0
1924.5628447,132728.515625,132840.890625,133466.65625,133034.546875,132964.640625,133062.71875,133246.09375,133359.71875,0.399658203125,0.723388671875,0.54931640625,-1.8920897245407104,-0.1220703050494194,0.6713866591453552,66.66667175292969,2434.0,1.0
1924.5628501,132706.15625,132818.625,133444.484375,133011.84375,132942.1875,133040.265625,133223.734375,133337.015625,0.399658203125,0.725830078125,0.548583984375,-2.044677495956421,-0.1220703050494194,0.7324218153953552,66.66667175292969,2435.0,1.0
1924.5647618,132704.640625,132816.671875,133442.609375,133010.140625,132940.578125,133038.84375,133221.859375,133335.40625,0.4013671875,0.724365234375,0.54833984375,-1.9531248807907104,-0.1831054538488388,0.7934569716453552,66.66667175292969,2436.0,1.0
1924.574103,132773.296875,132885.6875,133511.53125,133078.625,133009.15625,133107.59375,133290.703125,133403.984375,0.40185546875,0.723876953125,0.55126953125,-1.9226073026657104,-0.1525878757238388,0.6713866591453552,66.66667175292969,2437.0,1.0
1924.574109,132840.171875,132952.203125,133577.96875,133145.140625,133075.59375,133173.9375,133357.125,133470.5,0.401123046875,0.72509765625,0.550537109375,-1.9226073026657104,-0.0915527269244194,0.7629393935203552,66.66667175292969,2438.0,1.0
1924.5760183,132827.75,132939.59375,133565.625,133132.890625,133063.421875,133161.5,133344.96875,133458.421875,0.400146484375,0.72412109375,0.549560546875,-1.8920897245407104,-0.2746581733226776,0.8239745497703552,66.66667175292969,2439.0,1.0
1924.5847625,132815.6875,132927.53125,133553.640625,133121.0,133051.359375,133149.4375,133332.546875,133446.453125,0.40087890625,0.724365234375,0.55078125,-1.9531248807907104,-0.2441406100988388,0.7934569716453552,66.66667175292969,2440.0,1.0
1924.5891087,132872.640625,132984.296875,133610.59375,133178.140625,133108.40625,133206.484375,133389.9375,133503.75,0.401123046875,0.7236328125,0.548828125,-1.9836424589157104,-0.2136230319738388,0.7019042372703552,66.66667175292969,2441.0,1.0
1924.5891155,132949.515625,133061.640625,133687.84375,133255.203125,133185.734375,133283.453125,133467.28125,133580.734375,0.39892578125,0.72412109375,0.547119140625,-1.8005369901657104,-0.2441406100988388,0.6103515028953552,66.66667175292969,2442.0,1.0
1924.5972628,132950.328125,133061.8125,133688.203125,133255.65625,133186.09375,133284.171875,133467.546875,133581.359375,0.40185546875,0.723388671875,0.547119140625,-1.8310545682907104,-0.2441406100988388,0.6408690810203552,66.66667175292969,2443.0,1.0
1924.6018146,132928.78125,133040.359375,133666.390625,133234.109375,133164.1875,133262.359375,133445.640625,133559.546875,0.401123046875,0.72412109375,0.55029296875,-1.9226073026657104,-0.2136230319738388,0.6103515028953552,66.66667175292969,2444.0,1.0
1924.6018219,132973.578125,133086.046875,133711.8125,133279.4375,133209.703125,133307.515625,133491.328125,133604.78125,0.398681640625,0.724365234375,0.549072265625,-1.9531248807907104,-0.2441406100988388,0.6408690810203552,66.66667175292969,2445.0,1.0
1924.6272635,133054.9375,133167.3125,133793.4375,133360.96875,133290.96875,133389.046875,133573.046875,133686.421875,0.39990234375,0.724609375,0.55029296875,-2.014159917831421,-0.2136230319738388,0.5798339247703552,66.66667175292969,2446.0,1.0
1924.6303647,133070.40625,133182.34375,133808.640625,133376.171875,133306.34375,133404.6875,133588.15625,133701.609375,0.400146484375,0.72509765625,0.55029296875,-1.9836424589157104,-0.1525878757238388,0.6713866591453552,66.66667175292969,2447.0,1.0
1924.6303693,133044.46875,133156.765625,133782.96875,133350.15625,133280.6875,133378.9375,133562.234375,133675.78125,0.3994140625,0.72509765625,0.55029296875,-1.9836424589157104,-0.1525878757238388,0.7019042372703552,66.66667175292969,2448.0,1.0
1924.6322547,133074.96875,133186.984375,133813.46875,133380.546875,133310.8125,133408.984375,133592.890625,133706.265625,0.400390625,0.72412109375,0.5498046875,-1.9836424589157104,-0.1525878757238388,0.6408690810203552,66.66667175292969,2449.0,1.0
1924.6347699,133158.28125,133270.140625,133896.796875,133463.703125,133393.96875,133492.3125,133676.046875,133789.765625,0.401123046875,0.72607421875,0.548828125,-1.9226073026657104,-0.3051757514476776,0.6103515028953552,66.66667175292969,2450.0,1.0
1924.6372853,133189.21875,133301.25,133927.90625,133494.734375,133424.984375,133523.421875,133706.984375,133820.96875,0.400634765625,0.72509765625,0.54736328125,-1.9836424589157104,-0.2746581733226776,0.6103515028953552,66.66667175292969,2451.0,1.0
1924.6397612,133158.828125,133270.765625,133897.78125,133464.59375,133394.953125,133493.125,133676.765625,133790.484375,0.3994140625,0.724609375,0.54736328125,-1.9226073026657104,-0.2746581733226776,0.6713866591453552,66.66667175292969,2452.0,1.0
1924.6422562,133178.671875,133290.4375,133917.265625,133484.265625,133414.703125,133512.703125,133696.421875,133810.0625,0.39990234375,0.7275390625,0.549072265625,-1.9531248807907104,-0.2746581733226776,0.6713866591453552,66.66667175292969,2453.0,1.0
1924.644766,133261.015625,133372.953125,133999.34375,133566.515625,133496.78125,133595.40625,133778.5,133892.40625,0.401123046875,0.7265625,0.5498046875,-1.9531248807907104,-0.1831054538488388,0.7324218153953552,66.66667175292969,2454.0,1.0
1924.6472724,133306.609375,133418.640625,134045.109375,133611.84375,133542.296875,133641.171875,133824.28125,133937.734375,0.400634765625,0.7236328125,0.550537109375,-1.9226073026657104,-0.1525878757238388,0.7324218153953552,66.66667175292969,2455.0,1.0
1924.649761,133279.53125,133391.640625,134017.84375,133584.9375,133515.015625,133613.640625,133797.1875,133910.734375,0.39990234375,0.7236328125,0.5498046875,-1.8615721464157104,-0.1831054538488388,0.7324218153953552,66.66667175292969,2456.0,1.0
1924.6528366,133287.921875,133399.953125,134026.34375,133593.609375,133523.78125,133622.125,133805.59375,133919.234375,0.39990234375,0.72216796875,0.5517578125,-1.8005369901657104,-0.2441406100988388,0.7934569716453552,66.66667175292969,2457.0,1.0
1924.6528412,133361.421875,133473.453125,134100.015625,133666.921875,133597.546875,133695.71875,133879.0,133992.8125,0.401123046875,0.724365234375,0.5498046875,-1.8310545682907104,-0.1525878757238388,0.7324218153953552,66.66667175292969,2458.0,1.0
1924.6635115,133419.265625,133531.390625,134157.859375,133724.59375,133655.03125,133753.296875,133936.671875,134050.21875,0.400634765625,0.72314453125,0.54931640625,-1.8920897245407104,-0.2136230319738388,0.7324218153953552,66.66667175292969,2459.0,1.0
1924.6665936,133397.359375,133509.5625,134136.140625,133702.859375,133633.21875,133731.65625,133914.9375,134028.75,0.401123046875,0.723876953125,0.55078125,-1.9836424589157104,-0.1525878757238388,0.7629393935203552,66.66667175292969,2460.0,1.0
1924.6665995,133393.96875,133506.171875,134132.640625,133699.734375,133629.734375,133728.265625,133911.625,134025.359375,0.40087890625,0.723388671875,0.550537109375,-1.9531248807907104,-0.1831054538488388,0.7019042372703552,66.66667175292969,2461.0,1.0
1924.6722619,133459.234375,133571.34375,134198.1875,133765.1875,133695.171875,133793.703125,133977.171875,134090.890625,0.399169921875,0.72412109375,0.54736328125,-1.9836424589157104,-0.1831054538488388,0.5798339247703552,66.66667175292969,2462.0,1.0
1924.6765938,133527.0,133638.9375,134265.59375,133832.859375,133762.953125,133861.828125,134044.84375,134158.578125,0.398681640625,0.7236328125,0.548583984375,-1.9226073026657104,-0.1525878757238388,0.6103515028953552,66.66667175292969,2463.0,1.0
1924.6765993,133514.9375,133627.046875,134253.4375,133820.53125,133750.96875,133849.5,134032.875,134146.59375,0.398681640625,0.725341796875,0.54931640625,-1.8310545682907104,-0.2136230319738388,0.7629393935203552,66.66667175292969,2464.0,1.0
1924.6810287,133503.84375,133616.046875,134242.34375,133809.4375,133739.703125,133838.3125,134021.6875,134135.421875,0.400390625,0.72509765625,0.548095703125,-1.9836424589157104,-0.3051757514476776,0.7019042372703552,66.66667175292969,2465.0,1.0
1924.6897672,133557.3125,133670.046875,134296.34375,133863.359375,133793.796875,133892.046875,134075.875,134189.234375,0.3994140625,0.724609375,0.546875,-1.8920897245407104,-0.2441406100988388,0.6713866591453552,66.66667175292969,2466.0,1.0
1924.6928392,133632.6875,133745.328125,134371.984375,133938.90625,133869.15625,133967.6875,134151.25,134264.609375,0.3984375,0.7236328125,0.547119140625,-2.014159917831421,-0.3051757514476776,0.5493163466453552,66.66667175292969,2467.0,1.0
1924.6928431,133635.359375,133748.015625,134374.578125,133941.5,133871.84375,133970.1875,134154.109375,134267.296875,0.398681640625,0.724365234375,0.54833984375,-1.9226073026657104,-0.2136230319738388,0.6408690810203552,66.66667175292969,2468.0,1.0
1924.6947615,133613.546875,133725.9375,134353.03125,133919.671875,133850.03125,133948.375,134132.203125,134245.390625,0.400146484375,0.72509765625,0.54833984375,-1.9836424589157104,-0.2441406100988388,0.7324218153953552,66.66667175292969,2469.0,1.0
1924.7115949,133656.640625,133769.203125,134395.953125,133963.046875,133893.03125,133991.390625,134175.296875,134288.578125,0.40185546875,0.722900390625,0.5546875,-1.9226073026657104,-0.2746581733226776,0.7629393935203552,66.66667175292969,2470.0,1.0
1924.7116016,133739.4375,133852.359375,134478.734375,134045.75,133976.1875,134074.53125,134258.53125,134371.90625,0.401123046875,0.722900390625,0.553466796875,-1.9226073026657104,-0.1831054538488388,0.7324218153953552,66.66667175292969,2471.0,1.0
1924.7135094,133757.5,133869.875,134496.796875,134063.796875,133993.890625,134092.6875,134276.234375,134389.609375,0.401123046875,0.7236328125,0.55126953125,-1.9531248807907104,-0.2746581733226776,0.7934569716453552,66.66667175292969,2472.0,1.0
1924.7160103,133727.546875,133840.015625,134467.125,134033.5,133963.9375,134062.640625,134246.109375,134359.65625,0.400634765625,0.72412109375,0.5498046875,-1.9226073026657104,-0.3051757514476776,0.6408690810203552,66.66667175292969,2473.0,1.0
1924.7185086,133757.578125,133869.875,134497.0625,134063.796875,133993.703125,134092.6875,134276.140625,134389.875,0.3994140625,0.723388671875,0.548583984375,-1.8615721464157104,-0.2136230319738388,0.6103515028953552,66.66667175292969,2474.0,1.0
1924.7247751,133840.90625,133953.203125,134580.578125,134146.953125,134077.390625,134176.09375,134359.5625,134473.28125,0.400146484375,0.722900390625,0.54638671875,-1.9531248807907104,-0.2746581733226776,0.7019042372703552,66.66667175292969,2475.0,1.0
1924.7372015,133875.15625,133987.265625,134614.375,134180.84375,134111.453125,134209.796875,134393.265625,134507.0,0.400390625,0.723388671875,0.548828125,-1.8310545682907104,-0.2746581733226776,0.5798339247703552,66.66667175292969,2476.0,1.0
1924.7372087,133843.5,133955.796875,134582.8125,134149.0,134079.890625,134178.328125,134361.625,134475.34375,0.40087890625,0.72314453125,0.5478515625,-1.9226073026657104,-0.2746581733226776,0.6713866591453552,66.66667175292969,2477.0,1.0
1924.7372114,133861.109375,133973.59375,134600.515625,134167.15625,134097.59375,134196.125,134379.40625,134492.953125,0.401123046875,0.725341796875,0.54833984375,-1.8615721464157104,-0.1831054538488388,0.6408690810203552,66.66667175292969,2478.0,1.0
1924.7403674,133941.3125,134053.34375,134680.53125,134247.359375,134177.625,134276.140625,134459.609375,134573.0625,0.400390625,0.72412109375,0.54833984375,-1.9836424589157104,-0.1831054538488388,0.6713866591453552,66.66667175292969,2479.0,1.0
1924.7403741,133987.890625,134099.5625,134727.03125,134293.578125,134223.75,134322.640625,134506.1875,134619.640625,0.398681640625,0.723876953125,0.548828125,-1.9836424589157104,-0.2746581733226776,0.8239745497703552,66.66667175292969,2480.0,1.0
1924.7422548,133959.203125,134071.21875,134698.5,134264.796875,134195.328125,134294.03125,134477.40625,134590.859375,0.3994140625,0.722900390625,0.54833984375,-1.8920897245407104,-0.0915527269244194,0.6408690810203552,66.66667175292969,2481.0,1.0
1924.7535043,133966.171875,134078.375,134705.5625,134271.671875,134202.46875,134301.09375,134484.1875,134598.015625,0.39794921875,0.72216796875,0.547119140625,-1.9226073026657104,-0.1525878757238388,0.6713866591453552,66.66667175292969,2482.0,1.0
1924.7565922,134040.46875,134152.765625,134780.046875,134346.421875,134276.859375,134375.46875,134558.84375,134672.578125,0.399169921875,0.723876953125,0.549072265625,-1.9226073026657104,-0.2441406100988388,0.7629393935203552,66.66667175292969,2483.0,1.0
1924.7565969,134099.203125,134211.40625,134838.78125,134405.15625,134335.59375,134434.21875,134617.5,134731.3125,0.397705078125,0.724853515625,0.54833984375,-1.8615721464157104,-0.2136230319738388,0.6408690810203552,66.66667175292969,2484.0,1.0
1924.7585166,134078.109375,134190.5,134817.59375,134384.140625,134314.59375,134413.03125,134596.484375,134710.03125,0.400146484375,0.72607421875,0.55078125,-1.9226073026657104,-0.2441406100988388,0.6408690810203552,66.66667175292969,2485.0,1.0
1924.76726,134072.390625,134185.03125,134812.140625,134378.515625,134308.875,134407.484375,134591.21875,134704.671875,0.40087890625,0.72412109375,0.551025390625,-1.9226073026657104,-0.2441406100988388,0.6713866591453552,66.66667175292969,2486.0,1.0
1924.7697611,134136.765625,134249.328125,134876.6875,134443.0625,134373.0625,134472.03125,134655.671875,134768.859375,0.401611328125,0.7236328125,0.552734375,-1.9531248807907104,-0.1831054538488388,0.6103515028953552,66.66667175292969,2487.0,1.0
1924.7735163,134207.921875,134320.3125,134947.40625,134514.140625,134444.234375,134542.9375,134726.75,134839.9375,0.3984375,0.723876953125,0.550537109375,-2.044677495956421,-0.2136230319738388,0.6713866591453552,66.66667175292969,2488.0,1.0
1924.7828441,134198.09375,134310.46875,134937.21875,134504.125,134434.21875,134532.828125,134716.921875,134830.109375,0.399169921875,0.724365234375,0.54736328125,-1.9531248807907104,-0.2746581733226776,0.6713866591453552,66.66667175292969,2489.0,1.0
1924.7828502,134180.125,134292.5,134919.515625,134486.25,134416.515625,134515.046875,134698.859375,134812.234375,0.3984375,0.725341796875,0.551025390625,-1.8920897245407104,-0.2746581733226776,0.6408690810203552,66.66667175292969,2490.0,1.0
1924.785362,134232.609375,134344.625,134972.0,134538.375,134468.546875,134567.4375,134750.984375,134864.265625,0.3974609375,0.72607421875,0.552001953125,-1.8920897245407104,-0.3662109076976776,0.6103515028953552,66.66667175292969,2491.0,1.0
1924.7853658,134310.65625,134423.046875,135049.96875,134616.78125,134546.59375,134645.84375,134829.484375,134942.671875,0.39794921875,0.724853515625,0.548583984375,-1.8310545682907104,-0.3051757514476776,0.6103515028953552,66.66667175292969,2492.0,1.0
1924.7960116,134315.9375,134428.578125,135055.6875,134621.875,134552.046875,134651.203125,134834.765625,134948.21875,0.39892578125,0.724609375,0.551025390625,-1.9226073026657104,-0.2746581733226776,0.5798339247703552,66.66667175292969,2493.0,1.0
1924.7990842,134293.671875,134406.328125,135033.515625,134599.4375,134529.96875,134628.9375,134812.59375,134926.140625,0.4013671875,0.724609375,0.549560546875,-1.9531248807907104,-0.3051757514476776,0.6103515028953552,66.66667175292969,2494.0,1.0
1924.7990888,134333.640625,134446.109375,135072.9375,134639.40625,134569.578125,134668.640625,134852.46875,134965.5625,0.39990234375,0.72314453125,0.547119140625,-1.9531248807907104,-0.1525878757238388,0.6103515028953552,66.66667175292969,2495.0,1.0
1924.8072609,134416.421875,134528.71875,135156.09375,134722.546875,134652.8125,134751.515625,134935.4375,135048.890625,0.3994140625,0.723876953125,0.550537109375,-1.9531248807907104,-0.1831054538488388,0.7019042372703552,66.66667175292969,2496.0,1.0
1924.8097605,134436.09375,134548.484375,135176.03125,134742.21875,134672.3125,134771.375,134955.1875,135068.828125,0.401123046875,0.724853515625,0.548095703125,-1.8005369901657104,-0.2441406100988388,0.6713866591453552,66.66667175292969,2497.0,1.0
1924.8135177,134406.953125,134519.515625,135146.609375,134712.984375,134643.078125,134742.140625,134926.140625,135039.328125,0.400390625,0.724609375,0.5478515625,-1.8615721464157104,-0.2746581733226776,0.8239745497703552,66.66667175292969,2498.0,1.0
1924.817276,134432.15625,134544.8125,135171.734375,134738.015625,134668.546875,134767.34375,134951.25,135064.359375,0.399658203125,0.722900390625,0.54638671875,-2.014159917831421,-0.2441406100988388,0.7019042372703552,66.66667175292969,2499.0,1.0
1924.8315922,134515.671875,134628.671875,135255.234375,134821.609375,134752.234375,134851.296875,135034.671875,135147.6875,0.40087890625,0.7255859375,0.547119140625,-1.9836424589157104,-0.2136230319738388,0.7324218153953552,66.66667175292969,2500.0,1.0
1924.8315992,134549.46875,134662.46875,135289.84375,134856.21875,134786.390625,134885.8125,135069.0,135182.28125,0.39990234375,0.724609375,0.547607421875,-1.9836424589157104,-0.2441406100988388,0.6408690810203552,66.66667175292969,2501.0,1.0
1924.8333737,134520.21875,134632.875,135260.25,134826.53125,134757.25,134855.953125,135039.234375,135152.78125,0.400634765625,0.72412109375,0.548828125,-1.9531248807907104,-0.2136230319738388,0.6103515028953552,66.66667175292969,2502.0,1.0
1924.8416196,134535.328125,134647.71875,135275.171875,134841.640625,134771.90625,134870.796875,135054.25,135167.796875,0.40087890625,0.7236328125,0.54833984375,-1.8005369901657104,-0.2136230319738388,0.6408690810203552,66.66667175292969,2503.0,1.0
1924.8416254,134615.09375,134727.828125,135355.28125,134921.65625,134851.296875,134950.625,135134.09375,135247.734375,0.402099609375,0.72265625,0.549560546875,-1.9226073026657104,-0.2136230319738388,0.6713866591453552,66.66667175292969,2504.0,1.0
1924.843502,134665.328125,134778.4375,135405.625,134971.734375,134902.0,135001.140625,135184.515625,135298.0625,0.4013671875,0.722900390625,0.549560546875,-1.8920897245407104,-0.2441406100988388,0.7324218153953552,66.66667175292969,2505.0,1.0
1924.8460071,134636.359375,134748.921875,135376.296875,134942.5,134872.9375,134971.734375,135155.375,135269.015625,0.3994140625,0.724853515625,0.548583984375,-1.8920897245407104,-0.1831054538488388,0.6713866591453552,66.66667175292969,2506.0,1.0
1924.8522572,134638.875,134751.609375,135378.625,134944.8125,134875.265625,134974.234375,135157.703125,135271.25,0.39990234375,0.723388671875,0.550048828125,-1.9531248807907104,-0.1525878757238388,0.7324218153953552,66.66667175292969,2507.0,1.0
1924.8565998,134709.234375,134821.96875,135448.8125,135015.359375,134945.890625,135044.6875,135228.15625,135341.515625,0.400634765625,0.723388671875,0.54833984375,-1.9836424589157104,-0.2136230319738388,0.5798339247703552,66.66667175292969,2508.0,1.0
1924.8566047,134772.265625,134884.640625,135512.375,135078.390625,135008.828125,135107.890625,135291.0,135404.453125,0.4013671875,0.72265625,0.547119140625,-1.8920897245407104,-0.1831054538488388,0.6103515028953552,66.66667175292969,2509.0,1.0
1924.8597576,134754.296875,134866.765625,135494.046875,135060.25,134990.234375,135089.65625,135273.03125,135386.21875,0.4013671875,0.724365234375,0.5498046875,-1.9531248807907104,-0.1831054538488388,0.5798339247703552,66.66667175292969,2510.0,1.0
1924.8740914,134746.609375,134859.25,135486.265625,135053.09375,134983.171875,135082.140625,135265.875,135379.25,0.4013671875,0.723876953125,0.5458984375,-1.9531248807907104,-0.2136230319738388,0.7324218153953552,66.66667175292969,2511.0,1.0
1924.8740985,134805.96875,134918.890625,135545.71875,135112.1875,135042.8125,135142.046875,135325.609375,135438.875,0.39990234375,0.725830078125,0.545654296875,-2.044677495956421,-0.3051757514476776,0.7629393935203552,66.66667175292969,2512.0,1.0
1924.8760099,134877.234375,134990.328125,135616.890625,135183.71875,135113.984375,135213.484375,135396.59375,135510.234375,0.399169921875,0.725341796875,0.546142578125,-1.9836424589157104,-0.3356933295726776,0.7629393935203552,66.66667175292969,2513.0,1.0
1924.8785165,134871.6875,134985.046875,135611.890625,135178.625,135108.4375,135207.9375,135391.046875,135504.5,0.39990234375,0.72412109375,0.54736328125,-1.9226073026657104,-0.3356933295726776,0.7629393935203552,66.66667175292969,2514.0,1.0
1924.8822574,134853.984375,134967.265625,135594.0,135160.921875,135090.734375,135190.15625,135373.25,135487.078125,0.398681640625,0.72509765625,0.55078125,-1.9226073026657104,-0.3051757514476776,0.7324218153953552,66.66667175292969,2515.0,1.0
1924.88851,134904.234375,135016.796875,135643.890625,135210.890625,135140.703125,135240.125,135423.6875,135537.234375,0.397705078125,0.724365234375,0.5498046875,-1.8615721464157104,-0.2441406100988388,0.7629393935203552,66.66667175292969,2516.0,1.0
1924.8928392,134983.0,135095.5625,135722.921875,135289.484375,135219.484375,135319.078125,135502.359375,135616.0,0.398193359375,0.723388671875,0.550048828125,-1.9226073026657104,-0.2441406100988388,0.7324218153953552,66.66667175292969,2517.0,1.0
1924.8928463,134990.78125,135103.15625,135730.4375,135297.171875,135227.25,135326.671875,135509.875,135623.328125,0.400146484375,0.722412109375,0.549560546875,-1.9226073026657104,-0.2441406100988388,0.6408690810203552,66.66667175292969,2518.0,1.0
1924.9035055,134964.84375,135077.859375,135705.140625,135271.6875,135201.78125,135301.28125,135484.296875,135598.03125,0.400390625,0.72119140625,0.55126953125,-1.9531248807907104,-0.2136230319738388,0.5493163466453552,66.66667175292969,2519.0,1.0
1924.9065911,135002.125,135115.5,135742.234375,135308.890625,135238.796875,135338.125,135521.40625,135635.671875,0.399658203125,0.72216796875,0.553955078125,-1.9531248807907104,-0.2746581733226776,0.6103515028953552,66.66667175292969,2520.0,1.0
1924.9065968,135084.203125,135197.578125,135824.40625,135391.140625,135321.3125,135420.28125,135603.75,135717.46875,0.3994140625,0.723388671875,0.552001953125,-2.044677495956421,-0.1831054538488388,0.7019042372703552,66.66667175292969,2521.0,1.0
1924.9085085,135105.484375,135218.578125,135845.5,135412.421875,135342.59375,135441.5625,135625.109375,135738.84375,0.4013671875,0.72314453125,0.5498046875,-1.9226073026657104,-0.2746581733226776,0.7324218153953552,66.66667175292969,2522.0,1.0
1924.9178419,135076.0625,135188.984375,135816.0,135382.90625,135312.90625,135412.0625,135595.515625,135709.15625,0.400390625,0.722900390625,0.54833984375,-1.9226073026657104,-0.2136230319738388,0.7019042372703552,66.66667175292969,2523.0,1.0
1924.9178493,135101.8125,135214.921875,135842.015625,135408.484375,135338.828125,135437.984375,135621.265625,135735.0,0.39794921875,0.722412109375,0.549560546875,-1.8615721464157104,-0.2746581733226776,0.7019042372703552,66.66667175292969,2524.0,1.0
1924.9197617,135184.96875,135298.15625,135925.4375,135492.078125,135421.71875,135521.3125,135704.515625,135818.421875,0.401123046875,0.724365234375,0.551025390625,-1.9226073026657104,-0.2746581733226776,0.7019042372703552,66.66667175292969,2525.0,1.0
1924.9335087,135222.15625,135335.171875,135962.53125,135528.921875,135458.90625,135558.59375,135741.609375,135855.515625,0.399658203125,0.724853515625,0.55078125,-1.9836424589157104,-0.3662109076976776,0.7019042372703552,66.66667175292969,2526.0,1.0
1924.9371838,135190.421875,135303.515625,135930.703125,135497.265625,135427.4375,135526.859375,135709.703125,135823.78125,0.4013671875,0.72509765625,0.548583984375,-1.9531248807907104,-0.3662109076976776,0.6713866591453552,66.66667175292969,2527.0,1.0
1924.9371891,135204.453125,135317.375,135944.84375,135511.125,135441.5625,135540.53125,135724.0,135837.90625,0.401611328125,0.723388671875,0.547607421875,-1.9531248807907104,-0.3051757514476776,0.7934569716453552,66.66667175292969,2528.0,1.0
1924.9371915,135281.703125,135394.71875,136021.8125,135588.375,135519.078125,135618.140625,135801.421875,135915.15625,0.3994140625,0.724853515625,0.548095703125,-1.8615721464157104,-0.3356933295726776,0.7629393935203552,66.66667175292969,2529.0,1.0
1924.9397258,135331.859375,135444.6875,136071.890625,135638.703125,135569.328125,135668.390625,135851.765625,135965.3125,0.39892578125,0.724609375,0.548828125,-1.8005369901657104,-0.2136230319738388,0.6713866591453552,66.66667175292969,2530.0,1.0
1924.9485198,135305.484375,135418.3125,136045.6875,135612.328125,135542.859375,135641.65625,135824.859375,135938.578125,0.398193359375,0.724609375,0.552001953125,-1.8615721464157104,-0.1525878757238388,0.6103515028953552,66.66667175292969,2531.0,1.0
1924.9510133,135308.890625,135421.984375,136049.078125,135615.375,135545.8125,135645.046875,135828.515625,135942.0625,0.399658203125,0.72265625,0.5498046875,-1.8310545682907104,-0.1831054538488388,0.6713866591453552,66.66667175292969,2532.0,1.0
1924.9535024,135379.0625,135492.265625,136119.453125,135685.90625,135616.171875,135715.59375,135898.96875,136012.421875,0.39990234375,0.725830078125,0.549072265625,-1.8005369901657104,-0.2136230319738388,0.6713866591453552,66.66667175292969,2533.0,1.0
1924.9572564,135440.21875,135553.328125,136180.6875,135747.15625,135677.59375,135776.9375,135960.125,136073.21875,0.400146484375,0.722900390625,0.552490234375,-1.9226073026657104,-0.1525878757238388,0.5798339247703552,66.66667175292969,2534.0,1.0
1924.9690896,135422.609375,135535.890625,136163.171875,135729.8125,135660.171875,135759.40625,135942.953125,136055.875,0.399658203125,0.722900390625,0.54931640625,-1.9531248807907104,-0.1831054538488388,0.5493163466453552,66.66667175292969,2535.0,1.0
1924.9690963,135415.453125,135528.734375,136155.75,135722.65625,135652.65625,135752.25,135935.625,136049.0,0.399169921875,0.724609375,0.550048828125,-1.9531248807907104,-0.2746581733226776,0.6408690810203552,66.66667175292969,2536.0,1.0
1924.9710036,135474.640625,135587.828125,136214.9375,135781.75,135711.84375,135811.4375,135994.8125,136108.0,0.400390625,0.725830078125,0.550537109375,-1.9531248807907104,-0.2441406100988388,0.7629393935203552,66.66667175292969,2537.0,1.0
1924.974758,135547.328125,135660.34375,136287.796875,135854.265625,135784.34375,135883.953125,136067.40625,136180.78125,0.398681640625,0.723876953125,0.55029296875,-1.9226073026657104,-0.2136230319738388,0.6408690810203552,66.66667175292969,2538.0,1.0
1924.9815922,135541.25,135653.90625,136281.90625,135848.1875,135778.8125,135877.953125,136061.6875,136175.0625,0.3984375,0.722900390625,0.55224609375,-1.9226073026657104,-0.2136230319738388,0.6713866591453552,66.66667175292969,2539.0,1.0
1924.9815997,135523.375,135635.9375,136263.75,135830.03125,135760.84375,135859.984375,136043.546875,136156.734375,0.4013671875,0.72216796875,0.550537109375,-1.8920897245407104,-0.2746581733226776,0.7934569716453552,66.66667175292969,2540.0,1.0
1924.9872553,135572.1875,135685.734375,136313.109375,135879.125,135809.921875,135909.25,136092.8125,136205.90625,0.399658203125,0.722412109375,0.551513671875,-1.8005369901657104,-0.2746581733226776,0.7324218153953552,66.66667175292969,2541.0,1.0
1924.9965889,135650.59375,135763.96875,136391.609375,135957.53125,135888.234375,135987.65625,136171.125,136284.40625,0.400634765625,0.724609375,0.55029296875,-1.9226073026657104,-0.2136230319738388,0.6103515028953552,66.66667175292969,2542.0,1.0
1924.9965951,135657.75,135771.03125,136398.671875,135964.59375,135895.484375,135994.8125,136178.28125,136291.46875,0.40185546875,0.724365234375,0.5498046875,-1.9531248807907104,-0.1525878757238388,0.6103515028953552,66.66667175292969,2543.0,1.0
1924.9990837,135632.359375,135745.28125,136372.734375,135938.9375,135869.640625,135969.15625,136152.34375,136265.53125,0.40087890625,0.724365234375,0.549560546875,-1.8615721464157104,-0.1525878757238388,0.6103515028953552,66.66667175292969,2544.0,1.0
1924.9990884,135668.75,135781.75,136408.953125,135975.59375,135906.125,136005.71875,136188.921875,136301.921875,0.400390625,0.7236328125,0.549560546875,-1.9531248807907104,-0.2136230319738388,0.7934569716453552,66.66667175292969,2545.0,1.0
1925.0072591,135749.390625,135862.3125,136489.59375,136056.328125,135986.953125,136086.015625,136269.734375,136382.65625,0.4013671875,0.72412109375,0.549560546875,-1.9531248807907104,-0.2746581733226776,0.7019042372703552,66.66667175292969,2546.0,1.0
1925.010413,135772.1875,135885.296875,136512.921875,136079.484375,136009.921875,136108.984375,136292.546875,136405.546875,0.400146484375,0.724609375,0.54931640625,-1.9531248807907104,-0.1525878757238388,0.6713866591453552,66.66667175292969,2547.0,1.0
1925.0104184,135742.234375,135855.25,136483.0625,136049.625,135979.796875,136079.125,136262.671875,136375.515625,0.39990234375,0.724609375,0.550537109375,-1.9226073026657104,-0.1831054538488388,0.6408690810203552,66.66667175292969,2548.0,1.0
1925.0122707,135767.09375,135879.75,136507.75,136074.125,136004.375,136103.71875,136287.359375,136400.453125,0.400390625,0.72314453125,0.548828125,-1.8005369901657104,-0.2136230319738388,0.7019042372703552,66.66667175292969,2549.0,1.0
1925.0260075,135848.453125,135961.46875,136589.015625,136155.5625,136085.921875,136185.34375,136368.984375,136481.90625,0.39892578125,0.724853515625,0.550048828125,-1.8615721464157104,-0.1220703050494194,0.6103515028953552,66.66667175292969,2550.0,1.0
1925.0285092,135886.453125,135999.828125,136627.28125,136193.5625,136123.921875,136223.515625,136407.0625,136520.078125,0.3984375,0.72607421875,0.550537109375,-1.8005369901657104,-0.2136230319738388,0.7019042372703552,66.66667175292969,2551.0,1.0
1925.0315951,135855.421875,135968.625,136596.25,136162.71875,136092.890625,136192.578125,136376.140625,136489.140625,0.399169921875,0.725830078125,0.5498046875,-1.7700194120407104,-0.3051757514476776,0.6713866591453552,66.66667175292969,2552.0,1.0
1925.0316002,135867.40625,135981.140625,136608.421875,136174.875,136104.96875,136204.828125,136388.390625,136501.125,0.399169921875,0.723876953125,0.551513671875,-1.9226073026657104,-0.3051757514476776,0.5798339247703552,66.66667175292969,2553.0,1.0
1925.0335157,135944.03125,136057.40625,136685.03125,136251.5,136181.671875,136281.359375,136464.734375,136577.84375,0.3994140625,0.722900390625,0.55126953125,-1.8920897245407104,-0.2441406100988388,0.6103515028953552,66.66667175292969,2554.0,1.0
1925.0522592,135995.34375,136108.625,136736.625,136302.640625,136233.078125,136332.59375,136516.0625,136628.984375,0.39892578125,0.724365234375,0.550537109375,-1.8615721464157104,-0.1831054538488388,0.7019042372703552,66.66667175292969,2555.0,1.0
1925.0553652,135970.3125,136083.0625,136711.234375,136277.25,136207.609375,136307.5625,136490.671875,136603.859375,0.39892578125,0.722900390625,0.54638671875,-1.9836424589157104,-0.2136230319738388,0.7324218153953552,66.66667175292969,2556.0,1.0
1925.0553727,135969.328125,136082.703125,136710.34375,136276.890625,136207.15625,136306.84375,136489.859375,136603.046875,0.398681640625,0.723388671875,0.547607421875,-1.9531248807907104,-0.1220703050494194,0.7324218153953552,66.66667175292969,2557.0,1.0
1925.0572605,136035.578125,136149.21875,136776.953125,136343.140625,136273.578125,136373.453125,136556.640625,136669.84375,0.40087890625,0.724609375,0.548095703125,-1.9226073026657104,-0.2136230319738388,0.7019042372703552,66.66667175292969,2558.0,1.0
1925.059762,136101.203125,136214.75,136842.65625,136408.59375,136339.125,136438.71875,136622.265625,136735.375,0.398681640625,0.724609375,0.54931640625,-1.9836424589157104,-0.2136230319738388,0.8544921278953552,66.66667175292969,2559.0,1.0
1925.0622605,136085.65625,136198.65625,136826.5625,136392.765625,136323.109375,136422.890625,136606.09375,136719.640625,0.399169921875,0.723876953125,0.546142578125,-2.014159917831421,-0.1831054538488388,0.7629393935203552,66.66667175292969,2560.0,1.0
1925.0660058,136073.765625,136186.859375,136814.59375,136380.78125,136311.046875,136410.828125,136594.109375,136707.65625,0.400146484375,0.723388671875,0.55029296875,-1.9531248807907104,-0.1220703050494194,0.7019042372703552,66.66667175292969,2561.0,1.0
1925.0697639,136132.859375,136245.78125,136873.6875,136439.796875,136370.234375,136470.109375,136653.46875,136766.84375,0.400146484375,0.72314453125,0.54736328125,-1.9531248807907104,-0.1220703050494194,0.7324218153953552,66.66667175292969,2562.0,1.0
1925.0740873,136206.0,136319.1875,136947.0,136512.921875,136443.734375,136543.59375,136726.609375,136839.890625,0.400634765625,0.72509765625,0.545166015625,-1.9836424589157104,-0.1525878757238388,0.7629393935203552,66.66667175292969,2563.0,1.0
1925.0740941,136202.0625,136315.078125,136943.0625,136509.171875,136439.53125,136539.484375,136722.671875,136835.953125,0.400634765625,0.724365234375,0.548095703125,-1.9531248807907104,-0.1831054538488388,0.8239745497703552,66.66667175292969,2564.0,1.0
1925.0872529,136182.390625,136295.484375,136923.484375,136489.765625,136419.9375,136519.640625,136703.09375,136816.46875,0.39990234375,0.722900390625,0.54736328125,-1.8615721464157104,-0.2136230319738388,0.7324218153953552,66.66667175292969,2565.0,1.0
1925.0904139,136228.34375,136341.453125,136969.796875,136535.90625,136466.25,136565.953125,136749.40625,136862.859375,0.399658203125,0.724609375,0.548583984375,-1.8920897245407104,-0.2136230319738388,0.7629393935203552,66.66667175292969,2566.0,1.0
1925.0904183,136306.390625,136419.3125,137048.03125,136613.78125,136544.3125,136643.90625,136827.109375,136940.734375,0.39990234375,0.72216796875,0.54736328125,-1.8920897245407104,-0.1831054538488388,0.6408690810203552,66.66667175292969,2567.0,1.0
1925.0922591,136315.515625,136429.0625,137057.234375,136623.171875,136553.15625,136653.03125,136836.40625,136949.859375,0.3994140625,0.724853515625,0.546630859375,-1.8005369901657104,-0.1220703050494194,0.7324218153953552,66.66667175292969,2568.0,1.0
1925.0960045,136288.34375,136402.421875,137029.96875,136596.34375,136526.25,136626.5625,136809.84375,136923.390625,0.3994140625,0.724365234375,0.54833984375,-1.8615721464157104,-0.1525878757238388,0.7324218153953552,66.66667175292969,2569.0,1.0
1925.1103627,136320.875,136434.515625,137062.328125,136628.890625,136559.15625,136658.9375,136842.125,136955.5,0.400146484375,0.7255859375,0.550048828125,-1.8615721464157104,-0.1525878757238388,0.7629393935203552,66.66667175292969,2570.0,1.0
1925.1103701,136403.859375,136517.578125,137145.65625,136711.859375,136642.03125,136742.171875,136925.1875,137038.375,0.401123046875,0.725830078125,0.54736328125,-1.8920897245407104,-0.0915527269244194,0.7019042372703552,66.66667175292969,2571.0,1.0
1925.1122499,136431.5625,136544.75,137172.75,136739.3125,136669.21875,136769.171875,136952.1875,137065.46875,0.400634765625,0.725830078125,0.550048828125,-1.8920897245407104,-0.1525878757238388,0.6408690810203552,66.66667175292969,2572.0,1.0
1925.1147621,136398.84375,136511.859375,137139.9375,136705.953125,136636.484375,136736.359375,136919.90625,137033.015625,0.400634765625,0.72509765625,0.54833984375,-1.9226073026657104,-0.3051757514476776,0.6408690810203552,66.66667175292969,2573.0,1.0
1925.1190824,136417.53125,136530.71875,137158.890625,136725.09375,136655.4375,136755.3125,136938.6875,137051.78125,0.399658203125,0.72412109375,0.55029296875,-1.9226073026657104,-0.1525878757238388,0.7324218153953552,66.66667175292969,2574.0,1.0
1925.1190875,136499.0625,136612.34375,137240.4375,136806.890625,136737.078125,136836.40625,137020.140625,137133.6875,0.39892578125,0.724853515625,0.550537109375,-1.8920897245407104,-0.1831054538488388,0.6408690810203552,66.66667175292969,2575.0,1.0
1925.1322602,136541.09375,136654.546875,137282.546875,136848.46875,136779.265625,136878.609375,137062.328125,137175.609375,0.399658203125,0.724365234375,0.548828125,-1.9226073026657104,-0.1831054538488388,0.6713866591453552,66.66667175292969,2576.0,1.0
1925.1365864,136510.96875,136624.59375,137252.40625,136818.515625,136749.234375,136848.46875,137032.03125,137145.21875,0.400146484375,0.724365234375,0.548583984375,-1.8310545682907104,-0.2441406100988388,0.7324218153953552,66.66667175292969,2577.0,1.0
1925.136593,136519.0,136632.734375,137260.375,136826.921875,136757.09375,136856.703125,137040.15625,137153.078125,0.39990234375,0.723388671875,0.54833984375,-1.9226073026657104,-0.2136230319738388,0.7629393935203552,66.66667175292969,2578.0,1.0
1925.1476884,136595.0,136708.546875,137336.359375,136902.65625,136832.828125,136932.78125,137116.15625,137229.25,0.400390625,0.724365234375,0.55029296875,-1.8615721464157104,-0.2136230319738388,0.7324218153953552,66.66667175292969,2579.0,1.0
1925.1476947,136649.0,136762.1875,137390.28125,136956.65625,136886.828125,136987.046875,137169.984375,137283.4375,0.400634765625,0.7255859375,0.55078125,-1.8920897245407104,-0.2136230319738388,0.6103515028953552,66.66667175292969,2580.0,1.0
1925.1559343,136625.765625,136738.765625,137367.03125,136933.3125,136863.40625,136963.359375,137146.828125,137259.921875,0.402099609375,0.72607421875,0.55078125,-1.8920897245407104,-0.2441406100988388,0.6408690810203552,66.66667175292969,2581.0,1.0
1925.1559394,136624.234375,136737.34375,137365.78125,136931.53125,136861.609375,136961.9375,137145.484375,137257.953125,0.39990234375,0.723876953125,0.5498046875,-1.9226073026657104,-0.1831054538488388,0.6408690810203552,66.66667175292969,2582.0,1.0
1925.1559417,136691.109375,136804.125,137432.484375,136998.5,136928.765625,137028.8125,137212.1875,137325.015625,0.3984375,0.724365234375,0.548828125,-1.9836424589157104,-0.3051757514476776,0.7324218153953552,66.66667175292969,2583.0,1.0
1925.1590818,136756.109375,136869.484375,137497.390625,137063.40625,136994.109375,137093.8125,137277.171875,137390.453125,0.3994140625,0.724365234375,0.5498046875,-1.9226073026657104,-0.2441406100988388,0.7324218153953552,66.66667175292969,2584.0,1.0
1925.1590867,136741.90625,136855.359375,137483.0,137049.28125,136979.625,137079.5,137262.875,137376.0625,0.400146484375,0.72412109375,0.548583984375,-1.8920897245407104,-0.2441406100988388,0.7629393935203552,66.66667175292969,2585.0,1.0
1925.1722557,136728.84375,136841.953125,137469.9375,137036.3125,136966.40625,137066.0,137249.828125,137362.734375,0.4013671875,0.722900390625,0.544677734375,-1.8615721464157104,-0.2746581733226776,0.6408690810203552,66.66667175292969,2586.0,1.0
1925.1797008,136783.5625,136897.203125,137525.28125,137091.65625,137021.390625,137121.609375,137304.890625,137418.359375,0.39990234375,0.72265625,0.545654296875,-1.9226073026657104,-0.2441406100988388,0.5798339247703552,66.66667175292969,2587.0,1.0
1925.1797075,136857.328125,136970.953125,137599.046875,137165.421875,137095.140625,137195.375,137378.921875,137492.109375,0.399169921875,0.7236328125,0.54833984375,-2.044677495956421,-0.2746581733226776,0.5798339247703552,66.66667175292969,2588.0,1.0
1925.1797098,136855.09375,136968.28125,137596.71875,137162.828125,137092.734375,137193.140625,137376.15625,137489.515625,0.40087890625,0.725341796875,0.5478515625,-1.9531248807907104,-0.1220703050494194,0.6103515028953552,66.66667175292969,2589.0,1.0
1925.1840939,136832.921875,136946.109375,137574.375,137140.390625,137070.375,137170.875,137354.25,137467.34375,0.400634765625,0.724853515625,0.54833984375,-2.044677495956421,-0.1525878757238388,0.6408690810203552,66.66667175292969,2590.0,1.0
1925.1840987,136877.265625,136990.71875,137619.15625,137185.265625,137115.359375,137215.40625,137398.765625,137511.78125,0.400634765625,0.724365234375,0.545166015625,-1.9531248807907104,-0.2441406100988388,0.6408690810203552,66.66667175292969,2591.0,1.0
1925.1897571,136958.078125,137071.625,137700.15625,137266.453125,137196.4375,137296.40625,137479.59375,137592.875,0.3984375,0.72265625,0.548828125,-2.044677495956421,-0.1525878757238388,0.7019042372703552,66.66667175292969,2592.0,1.0
1925.1990848,136971.234375,137084.5,137713.125,137279.328125,137209.234375,137309.359375,137492.5625,137605.75,0.3984375,0.72412109375,0.54931640625,-1.8920897245407104,-0.0915527269244194,0.7019042372703552,66.66667175292969,2593.0,1.0
1925.1990914,136942.53125,137055.8125,137684.25,137250.359375,137180.265625,137280.3125,137463.765625,137576.6875,0.399169921875,0.72412109375,0.5458984375,-2.014159917831421,-0.2746581733226776,0.6103515028953552,66.66667175292969,2594.0,1.0
1925.2053586,136972.484375,137085.84375,137714.203125,137280.3125,137210.484375,137310.625,137493.71875,137606.90625,0.39892578125,0.726806640625,0.54541015625,-1.9226073026657104,-0.2441406100988388,0.7019042372703552,66.66667175292969,2595.0,1.0
1925.2053642,137054.90625,137168.546875,137796.359375,137362.921875,137292.734375,137392.96875,137576.15625,137689.171875,0.400634765625,0.72705078125,0.546630859375,-1.9531248807907104,-0.1525878757238388,0.7019042372703552,66.66667175292969,2596.0,1.0
1925.2140864,137082.0,137195.28125,137823.359375,137389.828125,137320.0,137420.046875,137603.15625,137716.078125,0.401123046875,0.724853515625,0.548583984375,-1.9531248807907104,-0.1525878757238388,0.8239745497703552,66.66667175292969,2597.0,1.0
1925.2140925,137048.921875,137162.203125,137790.640625,137357.203125,137286.828125,137387.234375,137570.171875,137683.359375,0.399658203125,0.723876953125,0.550537109375,-1.9226073026657104,-0.1525878757238388,0.7019042372703552,66.66667175292969,2598.0,1.0
1925.2178466,137068.328125,137181.78125,137810.21875,137376.421875,137306.140625,137406.734375,137589.828125,137703.109375,0.40087890625,0.7255859375,0.550537109375,-1.9531248807907104,-0.1525878757238388,0.6408690810203552,66.66667175292969,2599.0,1.0
1925.217855,137149.953125,137263.046875,137891.5,137457.6875,137387.78125,137488.171875,137671.46875,137784.5625,0.400634765625,0.724609375,0.550537109375,-1.8310545682907104,-0.1831054538488388,0.7019042372703552,66.66667175292969,2600.0,1.0
1925.2260141,137191.96875,137305.4375,137933.78125,137499.984375,137430.25,137530.375,137713.75,137826.765625,0.401123046875,0.724853515625,0.551513671875,-1.8615721464157104,-0.2136230319738388,0.7019042372703552,66.66667175292969,2601.0,1.0
1925.2304162,137161.3125,137275.03125,137903.03125,137469.5,137399.75,137499.796875,137683.09375,137796.28125,0.398681640625,0.723876953125,0.5498046875,-1.9226073026657104,-0.2136230319738388,0.7019042372703552,66.66667175292969,2602.0,1.0
1925.2304225,137168.90625,137282.453125,137910.265625,137476.921875,137406.8125,137507.21875,137690.421875,137803.421875,0.398681640625,0.724609375,0.548583984375,-1.9226073026657104,-0.1831054538488388,0.7019042372703552,66.66667175292969,2603.0,1.0
1925.2335002,137242.125,137355.5,137983.671875,137549.78125,137480.046875,137580.453125,137763.46875,137876.65625,0.3984375,0.726318359375,0.55078125,-1.8920897245407104,-0.2136230319738388,0.7324218153953552,66.66667175292969,2604.0,1.0
1925.2672558,137298.640625,137412.09375,138040.171875,137606.375,137536.640625,137637.21875,137820.140625,137933.34375,0.3994140625,0.72607421875,0.548583984375,-1.9531248807907104,-0.2136230319738388,0.6713866591453552,66.66667175292969,2605.0,1.0
1925.2709313,137275.390625,137388.9375,138017.109375,137583.3125,137513.578125,137613.890625,137796.8125,137910.359375,0.39794921875,0.7275390625,0.54736328125,-1.9531248807907104,-0.0915527269244194,0.7324218153953552,66.66667175292969,2606.0,1.0
1925.2709361,137272.0,137384.921875,138013.796875,137579.828125,137509.90625,137610.21875,137793.140625,137906.609375,0.401123046875,0.72412109375,0.55078125,-1.9226073026657104,-0.1220703050494194,0.6103515028953552,66.66667175292969,2607.0,1.0
1925.2709384,137335.296875,137448.484375,138077.28125,137643.484375,137573.65625,137674.328125,137856.796875,137970.265625,0.401123046875,0.723876953125,0.55029296875,-1.8920897245407104,-0.2441406100988388,0.6103515028953552,66.66667175292969,2608.0,1.0
1925.2735116,137401.28125,137515.1875,138143.53125,137709.640625,137639.8125,137740.3125,137922.78125,138036.609375,0.400146484375,0.72265625,0.551513671875,-1.9836424589157104,-0.2441406100988388,0.6103515028953552,66.66667175292969,2609.0,1.0
1925.2760126,137389.296875,137503.203125,138131.46875,137697.296875,137627.65625,137727.96875,137910.984375,138024.359375,0.400634765625,0.72314453125,0.552734375,-1.9836424589157104,-0.2441406100988388,0.7019042372703552,66.66667175292969,2610.0,1.0
1925.278514,137374.09375,137487.90625,138116.4375,137682.375,137612.453125,137712.859375,137895.875,138009.15625,0.400634765625,0.723876953125,0.551513671875,-1.9531248807907104,-0.2746581733226776,0.7324218153953552,66.66667175292969,2611.0,1.0
1925.2810043,137427.734375,137541.640625,138169.8125,137736.015625,137665.734375,137766.6875,137949.703125,138063.0625,0.399658203125,0.723876953125,0.549072265625,-1.8615721464157104,-0.1831054538488388,0.6713866591453552,66.66667175292969,2612.0,1.0
1925.2835198,137502.84375,137616.203125,138244.5625,137810.671875,137740.9375,137841.6875,138024.359375,138137.984375,0.40087890625,0.724609375,0.550048828125,-1.9836424589157104,-0.1831054538488388,0.6713866591453552,66.66667175292969,2613.0,1.0
1925.2860183,137505.609375,137618.796875,138247.25,137813.171875,137743.609375,137844.28125,138026.765625,138140.5,0.40087890625,0.722900390625,0.551513671875,-1.9226073026657104,-0.1525878757238388,0.6408690810203552,66.66667175292969,2614.0,1.0
1925.2884965,137480.9375,137594.3125,138222.84375,137788.765625,137718.9375,137819.4375,138002.53125,138116.0,0.399658203125,0.721923828125,0.551513671875,-1.9531248807907104,-0.2136230319738388,0.6408690810203552,66.66667175292969,2615.0,1.0
1925.2910089,137520.8125,137634.984375,138262.984375,137829.265625,137759.4375,137859.671875,138042.953125,138156.5,0.39990234375,0.7255859375,0.55029296875,-1.9836424589157104,-0.2746581733226776,0.6713866591453552,66.66667175292969,2616.0,1.0
1925.2935095,137602.078125,137715.90625,138343.796875,137910.265625,137840.53125,137941.03125,138123.78125,138237.328125,0.398193359375,0.72265625,0.55078125,-1.9531248807907104,-0.3051757514476776,0.7629393935203552,66.66667175292969,2617.0,1.0
1925.2966051,137619.078125,137733.15625,138361.234375,137927.609375,137857.4375,137958.1875,138140.84375,138254.484375,0.399169921875,0.72265625,0.55029296875,-1.9531248807907104,-0.3356933295726776,0.8239745497703552,66.66667175292969,2618.0,1.0
1925.2966114,137589.125,137703.03125,138331.375,137897.390625,137827.296875,137928.0625,138110.984375,138224.171875,0.40087890625,0.724365234375,0.548583984375,-1.9531248807907104,-0.3356933295726776,0.7934569716453552,66.66667175292969,2619.0,1.0
1925.3047604,137616.921875,137730.921875,138359.0,137925.296875,137855.109375,137955.78125,138138.796875,138252.15625,0.39990234375,0.724853515625,0.54931640625,-2.014159917831421,-0.2441406100988388,0.7324218153953552,66.66667175292969,2620.0,1.0
1925.3078358,137698.640625,137812.375,138440.546875,138007.09375,137936.734375,138037.671875,138220.78125,138333.96875,0.402587890625,0.72412109375,0.550048828125,-1.9531248807907104,-0.2746581733226776,0.7019042372703552,66.66667175292969,2621.0,1.0
1925.3078424,137730.921875,137844.90625,138473.0,138039.375,137969.015625,138070.125,138253.0625,138366.25,0.39990234375,0.72509765625,0.54931640625,-2.044677495956421,-0.1831054538488388,0.7019042372703552,66.66667175292969,2622.0,1.0
1925.3097625,137699.0,137813.078125,138441.078125,138007.359375,137937.1875,138037.859375,138220.875,138334.140625,0.39794921875,0.725830078125,0.552734375,-2.044677495956421,-0.2136230319738388,0.7019042372703552,66.66667175292969,2623.0,1.0
1925.3235072,137713.65625,137827.484375,138455.734375,138022.296875,137951.671875,138052.6875,138235.53125,138348.8125,0.3984375,0.725830078125,0.549560546875,-2.014159917831421,-0.1220703050494194,0.7629393935203552,66.66667175292969,2624.0,1.0
1925.3265845,137793.5,137907.046875,138535.5,138101.875,138031.421875,138132.53125,138315.546875,138428.65625,0.400634765625,0.724853515625,0.550048828125,-1.9531248807907104,-0.2136230319738388,0.7019042372703552,66.66667175292969,2625.0,1.0
1925.3265895,137838.390625,137952.109375,138580.375,138146.578125,138076.203125,138177.15625,138360.34375,138473.4375,0.399658203125,0.72509765625,0.55078125,-1.9226073026657104,-0.0610351525247097,0.7629393935203552,66.66667175292969,2626.0,1.0
1925.3284904,137808.703125,137922.609375,138550.609375,138116.890625,138046.890625,138147.5625,138330.484375,138443.84375,0.3984375,0.726318359375,0.553955078125,-1.9531248807907104,-0.1831054538488388,0.7934569716453552,66.66667175292969,2627.0,1.0
1925.3322525,137812.1875,137925.921875,138554.0,138120.46875,138050.640625,138151.046875,138333.875,138447.0625,0.398681640625,0.72509765625,0.550048828125,-1.9226073026657104,-0.1831054538488388,0.7629393935203552,66.66667175292969,2628.0,1.0
1925.3410139,137883.265625,137996.71875,138624.984375,138191.359375,138121.53125,138222.125,138404.78125,138518.140625,0.398681640625,0.724853515625,0.54931640625,-1.9531248807907104,-0.1525878757238388,0.7629393935203552,66.66667175292969,2629.0,1.0
1925.3454131,137942.015625,138055.90625,138684.09375,138250.546875,138180.09375,138281.21875,138463.875,138576.796875,0.39697265625,0.723876953125,0.55029296875,-1.9226073026657104,-0.1525878757238388,0.7934569716453552,66.66667175292969,2630.0,1.0
1925.3454177,137921.625,138035.96875,138664.0625,138230.34375,138159.984375,138261.109375,138443.765625,138557.046875,0.397705078125,0.725341796875,0.548095703125,-1.8920897245407104,-0.1831054538488388,0.6103515028953552,66.66667175292969,2631.0,1.0
1925.3517389,137914.203125,138028.640625,138656.28125,138222.84375,138152.828125,138253.6875,138436.34375,138549.796875,0.3994140625,0.72509765625,0.547119140625,-1.9226073026657104,-0.1831054538488388,0.6408690810203552,66.66667175292969,2632.0,1.0
1925.3517443,137975.890625,138090.0625,138718.328125,138284.609375,138214.34375,138315.375,138498.203125,138611.3125,0.40234375,0.723876953125,0.54833984375,-1.9836424589157104,-0.3051757514476776,0.7019042372703552,66.66667175292969,2633.0,1.0
1925.3535092,138046.4375,138160.25,138788.328125,138354.71875,138284.703125,138385.734375,138568.3125,138681.671875,0.400634765625,0.72509765625,0.550048828125,-1.9226073026657104,-0.2136230319738388,0.7019042372703552,66.66667175292969,2634.0,1.0
1925.3635051,138034.90625,138149.078125,138777.25,138343.53125,138273.171875,138374.5625,138556.953125,138670.59375,0.399658203125,0.72412109375,0.55224609375,-1.9531248807907104,-0.3356933295726776,0.7324218153953552,66.66667175292969,2635.0,1.0
1925.3665844,138016.75,138131.015625,138759.09375,138325.46875,138255.015625,138356.328125,138538.890625,138652.4375,0.400634765625,0.724853515625,0.5498046875,-1.9226073026657104,-0.2746581733226776,0.7019042372703552,66.66667175292969,2636.0,1.0
1925.3665902,138067.984375,138182.328125,138810.515625,138376.796875,138306.703125,138407.46875,138590.484375,138703.578125,0.400634765625,0.7255859375,0.553955078125,-1.8920897245407104,-0.4272460639476776,0.7019042372703552,66.66667175292969,2637.0,1.0
1925.3684966,138144.609375,138259.046875,138887.3125,138453.6875,138383.59375,138484.53125,138667.28125,138780.46875,0.400390625,0.724365234375,0.55322265625,-1.9226073026657104,-0.3051757514476776,0.6713866591453552,66.66667175292969,2638.0,1.0
1925.3797549,138148.8125,138262.71875,138890.96875,138457.265625,138387.34375,138488.203125,138670.9375,138784.3125,0.40087890625,0.72412109375,0.55029296875,-1.9836424589157104,-0.3356933295726776,0.7324218153953552,66.66667175292969,2639.0,1.0
1925.3828363,138121.8125,138235.625,138864.0625,138430.171875,138360.25,138461.46875,138643.859375,138757.3125,0.39990234375,0.724853515625,0.549072265625,-1.9531248807907104,-0.2441406100988388,0.8239745497703552,66.66667175292969,2640.0,1.0
1925.3828415,138160.515625,138274.78125,138903.21875,138468.96875,138399.140625,138500.71875,138683.015625,138796.5625,0.399658203125,0.723876953125,0.550537109375,-1.9836424589157104,-0.2441406100988388,0.6713866591453552,66.66667175292969,2641.0,1.0
1925.3849651,138243.125,138357.125,138985.390625,138551.5,138480.953125,138582.703125,138765.265625,138878.71875,0.39892578125,0.725830078125,0.55224609375,-1.8615721464157104,-0.1831054538488388,0.7019042372703552,66.66667175292969,2642.0,1.0
1925.3935033,138261.375,138375.1875,139004.078125,138569.734375,138499.546875,138601.03125,138783.59375,138896.78125,0.3994140625,0.724365234375,0.548828125,-1.9226073026657104,-0.2136230319738388,0.7324218153953552,66.66667175292969,2643.0,1.0
1925.3972763,138229.625,138343.984375,138972.609375,138538.265625,138468.265625,138569.109375,138752.125,138865.5,0.400146484375,0.7236328125,0.551025390625,-1.9531248807907104,-0.1831054538488388,0.7324218153953552,66.66667175292969,2644.0,1.0
1925.4065911,138254.84375,138369.28125,138997.640625,138563.484375,138493.5625,138594.328125,138777.25,138890.625,0.401611328125,0.722412109375,0.55078125,-1.9531248807907104,-0.3356933295726776,0.7019042372703552,66.66667175292969,2645.0,1.0
1925.4065978,138336.65625,138450.828125,139079.625,138645.46875,138575.28125,138676.390625,138859.328125,138972.421875,0.400634765625,0.72314453125,0.549072265625,-1.9531248807907104,-0.2441406100988388,0.6408690810203552,66.66667175292969,2646.0,1.0
1925.4084991,138369.90625,138483.90625,139112.796875,138678.28125,138608.265625,138709.484375,138892.3125,139005.328125,0.403564453125,0.72509765625,0.550537109375,-1.9836424589157104,-0.2136230319738388,0.6408690810203552,66.66667175292969,2647.0,1.0
1925.422837,138338.171875,138452.078125,139080.96875,138646.171875,138576.265625,138677.5625,138860.390625,138973.671875,0.4013671875,0.7236328125,0.55029296875,-1.8615721464157104,-0.1831054538488388,0.6103515028953552,66.66667175292969,2648.0,1.0
1925.4228445,138353.453125,138467.359375,139095.8125,138661.5625,138591.46875,138693.03125,138875.5,138988.875,0.400390625,0.723876953125,0.55078125,-1.8920897245407104,-0.2136230319738388,0.6408690810203552,66.66667175292969,2649.0,1.0
1925.4247511,138431.6875,138545.78125,139174.125,138740.0625,138670.046875,138771.171875,138954.09375,139067.109375,0.398193359375,0.724365234375,0.548828125,-1.9226073026657104,-0.2136230319738388,0.7019042372703552,66.66667175292969,2650.0,1.0
1925.4278477,138478.546875,138592.71875,139221.328125,138787.171875,138717.078125,138818.203125,139001.390625,139114.140625,0.401123046875,0.72509765625,0.550048828125,-1.8920897245407104,-0.1831054538488388,0.7934569716453552,66.66667175292969,2651.0,1.0
1925.4278535,138451.0,138564.640625,139193.890625,138759.546875,138689.546875,138790.484375,138973.40625,139086.234375,0.400146484375,0.72607421875,0.55078125,-1.8920897245407104,-0.0915527269244194,0.7629393935203552,66.66667175292969,2652.0,1.0
1925.440999,138453.328125,138566.96875,139196.296875,138761.78125,138691.859375,138792.625,138976.09375,139088.921875,0.401123046875,0.726318359375,0.548583984375,-1.8920897245407104,-0.2441406100988388,0.6713866591453552,66.66667175292969,2653.0,1.0
1925.4440903,138522.171875,138636.078125,139264.875,138830.796875,138760.890625,138861.734375,139045.109375,139158.03125,0.39990234375,0.7255859375,0.546630859375,-1.9226073026657104,-0.2441406100988388,0.6713866591453552,66.66667175292969,2654.0,1.0
1925.4440953,138580.90625,138695.4375,139324.0625,138889.984375,138819.890625,138920.65625,139103.765625,139217.046875,0.3994140625,0.72509765625,0.549072265625,-1.8310545682907104,-0.1525878757238388,0.6713866591453552,66.66667175292969,2655.0,1.0
1925.4460037,138559.625,138674.34375,139302.96875,138868.796875,138798.890625,138899.734375,139082.484375,139196.03125,0.39794921875,0.724609375,0.548583984375,-1.8005369901657104,-0.1525878757238388,0.7019042372703552,66.66667175292969,2656.0,1.0
1925.4485108,138550.328125,138664.953125,139293.484375,138859.421875,138789.59375,138890.625,139073.1875,139187.0,0.3994140625,0.72509765625,0.54931640625,-1.8310545682907104,-0.1525878757238388,0.6408690810203552,66.66667175292969,2657.0,1.0
1925.457245,138613.015625,138727.265625,139355.890625,138921.734375,138851.71875,138953.109375,139135.5,139249.40625,0.3994140625,0.725341796875,0.549072265625,-1.8615721464157104,-0.1525878757238388,0.6713866591453552,66.66667175292969,2658.0,1.0
1925.4615988,138682.390625,138796.375,139425.0,138991.296875,138920.75,139022.40625,139205.0625,139318.4375,0.39892578125,0.724365234375,0.546875,-1.8920897245407104,-0.2136230319738388,0.7019042372703552,66.66667175292969,2659.0,1.0
1925.4616075,138673.890625,138788.328125,139417.046875,138983.0625,138912.609375,139013.8125,139197.1875,139310.109375,0.399658203125,0.725341796875,0.54931640625,-1.8920897245407104,-0.2441406100988388,0.6408690810203552,66.66667175292969,2660.0,1.0
1925.4634693,138656.1875,138770.359375,139399.171875,138965.1875,138895.0,138996.03125,139179.3125,139292.234375,0.400146484375,0.7236328125,0.547607421875,-1.8615721464157104,-0.1831054538488388,0.5798339247703552,66.66667175292969,2661.0,1.0
1925.4753583,138703.3125,138817.84375,139446.546875,139012.5625,138942.203125,139043.140625,139226.703125,139339.703125,0.400390625,0.7255859375,0.547607421875,-1.9531248807907104,-0.0915527269244194,0.5798339247703552,66.66667175292969,2662.0,1.0
1925.4753651,138778.6875,138892.9375,139522.015625,139087.671875,139017.390625,139118.515625,139301.703125,139415.171875,0.40087890625,0.72314453125,0.548583984375,-1.9531248807907104,-0.1220703050494194,0.6713866591453552,66.66667175292969,2663.0,1.0
1925.4772438,138784.765625,138899.015625,139528.171875,139093.84375,139023.65625,139125.21875,139307.96875,139421.34375,0.39892578125,0.7236328125,0.548095703125,-1.8920897245407104,-0.1220703050494194,0.6713866591453552,66.66667175292969,2664.0,1.0
1925.4809977,138758.03125,138872.109375,139501.0,139066.84375,138996.390625,139098.21875,139280.875,139394.0625,0.3984375,0.724609375,0.548828125,-1.9531248807907104,-0.03051757626235485,0.7324218153953552,66.66667175292969,2665.0,1.0
1925.4878319,138792.8125,138906.984375,139536.046875,139101.703125,139031.34375,139132.828125,139316.1875,139428.9375,0.3994140625,0.723388671875,0.549560546875,-1.9226073026657104,-0.1220703050494194,0.6713866591453552,66.66667175292969,2666.0,1.0
1925.4878377,138872.828125,138987.0,139616.15625,139181.640625,139111.28125,139212.578125,139396.03125,139509.21875,0.3994140625,0.72314453125,0.546875,-1.9531248807907104,-0.0915527269244194,0.7324218153953552,66.66667175292969,2667.0,1.0
1925.493497,138894.28125,139008.640625,139637.875,139203.09375,139133.09375,139234.484375,139417.765625,139530.859375,0.3984375,0.72412109375,0.550537109375,-1.9836424589157104,-0.2746581733226776,0.8239745497703552,66.66667175292969,2668.0,1.0
1925.5028342,138862.09375,138976.1875,139605.515625,139170.546875,139100.71875,139202.203125,139384.953125,139498.5,0.3984375,0.72412109375,0.552001953125,-1.9531248807907104,-0.2746581733226776,0.7629393935203552,66.66667175292969,2669.0,1.0
1925.5028409,138887.671875,139001.65625,139630.734375,139196.125,139125.84375,139227.5,139410.34375,139523.53125,0.398193359375,0.72314453125,0.551025390625,-1.9531248807907104,-0.3356933295726776,0.7019042372703552,66.66667175292969,2670.0,1.0
1925.5047441,138970.28125,139084.453125,139713.078125,139278.90625,139208.546875,139310.203125,139493.125,139605.96875,0.399658203125,0.724365234375,0.550048828125,-1.9531248807907104,-0.2136230319738388,0.7629393935203552,66.66667175292969,2671.0,1.0
1925.5085135,139005.421875,139119.5,139748.5625,139314.3125,139243.953125,139345.703125,139528.359375,139641.546875,0.39990234375,0.723876953125,0.55029296875,-1.9226073026657104,-0.2136230319738388,0.7019042372703552,66.66667175292969,2672.0,1.0
1925.5178279,138972.0625,139086.515625,139715.671875,139281.0625,139210.609375,139312.34375,139495.71875,139608.203125,0.400390625,0.724609375,0.549560546875,-1.9226073026657104,-0.2136230319738388,0.6408690810203552,66.66667175292969,2673.0,1.0
1925.5178363,138983.78125,139098.125,139727.203125,139292.5,139222.40625,139324.0625,139507.4375,139619.828125,0.400146484375,0.72412109375,0.54931640625,-1.8615721464157104,-0.2136230319738388,0.7629393935203552,66.66667175292969,2674.0,1.0
1925.5197401,139059.328125,139173.953125,139802.484375,139368.3125,139298.40625,139399.875,139583.078125,139695.8125,0.400146484375,0.722412109375,0.5517578125,-1.9226073026657104,-0.2441406100988388,0.6713866591453552,66.66667175292969,2675.0,1.0
1925.5290843,139107.515625,139221.953125,139850.84375,139416.78125,139346.5,139447.984375,139631.265625,139744.28125,0.4013671875,0.724609375,0.549560546875,-1.9531248807907104,-0.2746581733226776,0.6713866591453552,66.66667175292969,2676.0,1.0
1925.5290906,139078.46875,139192.71875,139821.796875,139387.546875,139317.453125,139418.921875,139601.9375,139715.125,0.3994140625,0.72412109375,0.5498046875,-1.8920897245407104,-0.1525878757238388,0.6713866591453552,66.66667175292969,2677.0,1.0
1925.5310007,139080.515625,139194.953125,139823.671875,139389.59375,139319.328125,139420.890625,139604.0,139717.1875,0.400634765625,0.723388671875,0.54736328125,-1.8615721464157104,-0.2441406100988388,0.6408690810203552,66.66667175292969,2678.0,1.0
1925.5397461,139149.546875,139264.15625,139892.953125,139458.890625,139388.25,139489.90625,139672.921875,139786.203125,0.39892578125,0.7255859375,0.54736328125,-1.9226073026657104,-0.3051757514476776,0.6103515028953552,66.66667175292969,2679.0,1.0
1925.5440846,139211.234375,139325.5,139954.921875,139520.484375,139449.953125,139551.609375,139734.703125,139847.890625,0.398193359375,0.725341796875,0.54638671875,-1.9531248807907104,-0.3356933295726776,0.6408690810203552,66.66667175292969,2680.0,1.0
1925.5440907,139193.171875,139307.515625,139936.953125,139502.515625,139431.796875,139533.71875,139716.375,139829.65625,0.4013671875,0.72509765625,0.548828125,-1.9226073026657104,-0.3051757514476776,0.6408690810203552,66.66667175292969,2681.0,1.0
1925.5572478,139180.921875,139295.453125,139924.4375,139490.359375,139419.640625,139521.390625,139703.953125,139817.40625,0.400634765625,0.724609375,0.551025390625,-1.8310545682907104,-0.2746581733226776,0.7019042372703552,66.66667175292969,2682.0,1.0
1925.5604112,139239.578125,139353.828125,139983.078125,139549.015625,139478.640625,139580.03125,139762.875,139875.96875,0.40185546875,0.72314453125,0.55029296875,-1.8310545682907104,-0.2441406100988388,0.7629393935203552,66.66667175292969,2683.0,1.0
1925.560418,139310.65625,139425.09375,140054.34375,139620.09375,139549.71875,139651.109375,139834.390625,139947.5,0.400146484375,0.72216796875,0.552978515625,-1.8920897245407104,-0.3051757514476776,0.7629393935203552,66.66667175292969,2684.0,1.0
1925.5628464,139302.421875,139416.859375,140046.203125,139611.6875,139541.59375,139642.890625,139825.90625,139939.359375,0.39892578125,0.72412109375,0.54833984375,-1.8310545682907104,-0.2746581733226776,0.7324218153953552,66.66667175292969,2685.0,1.0
1925.5628517,139281.0625,139395.59375,140024.484375,139590.5,139519.953125,139621.25,139804.265625,139917.71875,0.399169921875,0.724609375,0.5498046875,-1.9226073026657104,-0.2136230319738388,0.7324218153953552,66.66667175292969,2686.0,1.0
1925.5647361,139328.078125,139442.53125,140071.140625,139637.515625,139567.078125,139668.546875,139851.46875,139964.75,0.40087890625,0.72412109375,0.550048828125,-1.8920897245407104,-0.2746581733226776,0.7019042372703552,66.66667175292969,2687.0,1.0
1925.5785042,139406.671875,139520.84375,140149.640625,139716.015625,139645.5625,139747.21875,139929.890625,140043.25,0.399658203125,0.72607421875,0.55126953125,-2.014159917831421,-0.1220703050494194,0.7934569716453552,66.66667175292969,2688.0,1.0
1925.58159,139415.96875,139530.5,140159.65625,139725.59375,139654.953125,139756.875,139939.71875,140052.734375,0.398193359375,0.7255859375,0.5498046875,-1.8920897245407104,-0.1831054538488388,0.7019042372703552,66.66667175292969,2689.0,1.0
1925.5815952,139386.828125,139501.53125,140130.515625,139696.265625,139625.71875,139727.375,139910.390625,140023.578125,0.39794921875,0.72509765625,0.548095703125,-1.8005369901657104,-0.2441406100988388,0.6408690810203552,66.66667175292969,2690.0,1.0
1925.5835086,139419.546875,139533.71875,140162.875,139728.71875,139658.171875,139759.75,139942.765625,140056.21875,0.400146484375,0.723876953125,0.54833984375,-1.8920897245407104,-0.1220703050494194,0.5798339247703552,66.66667175292969,2691.0,1.0
1925.5884962,139500.640625,139615.171875,140244.421875,139810.4375,139739.71875,139841.28125,140023.9375,140137.578125,0.39990234375,0.723876953125,0.548583984375,-1.9226073026657104,-0.1831054538488388,0.6408690810203552,66.66667175292969,2692.0,1.0
1925.5909926,139524.421875,139638.78125,140268.109375,139833.953125,139763.234375,139865.0625,140047.71875,140160.90625,0.3994140625,0.721923828125,0.5478515625,-1.9226073026657104,-0.2441406100988388,0.7324218153953552,66.66667175292969,2693.0,1.0
1925.5972432,139492.6875,139607.125,140236.453125,139802.65625,139731.578125,139833.5,140016.25,140129.265625,0.39892578125,0.724609375,0.55078125,-1.9531248807907104,-0.3356933295726776,0.8239745497703552,66.66667175292969,2694.0,1.0
1925.6115892,139514.59375,139628.765625,140257.921875,139824.109375,139752.953125,139854.96875,140038.0625,140150.890625,0.40087890625,0.724609375,0.548095703125,-2.044677495956421,-0.3356933295726776,0.7324218153953552,66.66667175292969,2695.0,1.0
1925.6115958,139595.40625,139709.5,140338.5625,139904.578125,139833.6875,139935.609375,140118.625,140231.546875,0.401123046875,0.724609375,0.548828125,-2.075195074081421,-0.1831054538488388,0.7324218153953552,66.66667175292969,2696.0,1.0
1925.614074,139632.96875,139747.5,140376.46875,139942.3125,139871.765625,139973.78125,140156.703125,140269.8125,0.399169921875,0.72314453125,0.546875,-1.8920897245407104,-0.3051757514476776,0.7324218153953552,66.66667175292969,2697.0,1.0
1925.6140784,139600.78125,139715.21875,140344.375,139910.21875,139839.578125,139941.5,140124.703125,140237.625,0.399658203125,0.724365234375,0.547607421875,-1.8615721464157104,-0.2746581733226776,0.6103515028953552,66.66667175292969,2698.0,1.0
1925.6172465,139610.25,139724.34375,140353.578125,139919.875,139849.15625,139950.453125,140133.640625,140246.75,0.397705078125,0.723388671875,0.54833984375,-1.9226073026657104,-0.1831054538488388,0.6103515028953552,66.66667175292969,2699.0,1.0
1925.6290767,139685.625,139799.703125,140429.40625,139995.15625,139924.96875,140026.4375,140209.015625,140322.65625,0.398193359375,0.7236328125,0.549072265625,-1.9226073026657104,-0.1831054538488388,0.7629393935203552,66.66667175292969,2700.0,1.0
1925.6290843,139736.9375,139851.109375,140480.8125,140046.375,139976.203125,140077.765625,140260.515625,140374.140625,0.39990234375,0.7255859375,0.54833984375,-1.9531248807907104,-0.1831054538488388,0.7324218153953552,66.66667175292969,2701.0,1.0
1925.6328239,139710.21875,139824.390625,140453.71875,140019.5625,139949.015625,140050.9375,140234.046875,140346.875,0.400390625,0.72509765625,0.54931640625,-1.9531248807907104,-0.1831054538488388,0.6713866591453552,66.66667175292969,2702.0,1.0
1925.6328304,139708.609375,139822.5,140451.65625,140017.5,139947.234375,140048.96875,140231.8125,140344.90625,0.40087890625,0.724853515625,0.55224609375,-1.8920897245407104,-0.2441406100988388,0.6408690810203552,66.66667175292969,2703.0,1.0
1925.6465849,139775.125,139889.375,140518.625,140084.46875,140014.1875,140115.578125,140298.515625,140411.703125,0.40087890625,0.72412109375,0.549560546875,-1.8920897245407104,-0.1831054538488388,0.6103515028953552,66.66667175292969,2704.0,1.0
1925.6465923,139838.15625,139953.046875,140582.109375,140147.953125,140077.5,140179.328125,140362.25,140475.453125,0.39892578125,0.7236328125,0.548583984375,-1.8920897245407104,-0.3356933295726776,0.6713866591453552,66.66667175292969,2705.0,1.0
1925.6490729,139820.984375,139935.703125,140565.03125,140130.78125,140059.875,140161.984375,140344.90625,140458.09375,0.400390625,0.723876953125,0.5478515625,-1.9226073026657104,-0.2441406100988388,0.7934569716453552,66.66667175292969,2706.0,1.0
1925.6490769,139808.640625,139923.09375,140552.609375,140118.53125,140047.640625,140149.828125,140332.484375,140446.03125,0.39990234375,0.723876953125,0.547607421875,-1.9226073026657104,-0.2746581733226776,0.7934569716453552,66.66667175292969,2707.0,1.0
1925.6603562,139863.453125,139977.359375,140607.046875,140172.984375,140102.625,140204.546875,140387.109375,140500.296875,0.400390625,0.724609375,0.55126953125,-1.9836424589157104,-0.0915527269244194,0.7629393935203552,66.66667175292969,2708.0,1.0
1925.6603634,139935.25,140049.25,140679.03125,140244.78125,140174.140625,140276.15625,140459.078125,140571.921875,0.3994140625,0.724365234375,0.55126953125,-1.9836424589157104,-0.1525878757238388,0.7934569716453552,66.66667175292969,2709.0,1.0
1925.6690771,139932.484375,140046.828125,140676.171875,140242.09375,140171.546875,140273.203125,140456.484375,140569.234375,0.39892578125,0.724365234375,0.5517578125,-1.9531248807907104,-0.2136230319738388,0.7324218153953552,66.66667175292969,2710.0,1.0
1925.6690828,139909.234375,140023.3125,140653.015625,140218.578125,140148.390625,140250.3125,140433.421875,140546.078125,0.39990234375,0.72412109375,0.55029296875,-1.9226073026657104,-0.2441406100988388,0.7324218153953552,66.66667175292969,2711.0,1.0
1925.68093,139951.96875,140066.40625,140695.828125,140261.578125,140191.484375,140293.40625,140476.25,140589.0,0.400146484375,0.722900390625,0.5478515625,-1.9836424589157104,-0.2441406100988388,0.7019042372703552,66.66667175292969,2712.0,1.0
1925.6809373,140029.578125,140144.109375,140773.4375,140339.28125,140268.921875,140370.75,140554.125,140666.328125,0.39892578125,0.724853515625,0.550537109375,-2.044677495956421,-0.2136230319738388,0.6713866591453552,66.66667175292969,2713.0,1.0
1925.6809398,140039.9375,140154.390625,140783.90625,140349.828125,140279.375,140381.203125,140564.140625,140676.796875,0.399658203125,0.72509765625,0.548095703125,-2.014159917831421,-0.1831054538488388,0.7019042372703552,66.66667175292969,2714.0,1.0
1925.6840742,140010.4375,140125.234375,140754.578125,140320.328125,140249.875,140352.15625,140534.28125,140647.375,0.399658203125,0.72509765625,0.546875,-2.014159917831421,-0.1525878757238388,0.7934569716453552,66.66667175292969,2715.0,1.0
1925.6840784,140040.65625,140155.1875,140784.609375,140350.71875,140279.90625,140381.65625,140564.859375,140677.6875,0.400146484375,0.725341796875,0.548095703125,-1.9226073026657104,-0.2136230319738388,0.7019042372703552,66.66667175292969,2716.0,1.0
1925.686001,140123.359375,140238.15625,140867.671875,140433.6875,140363.0625,140464.625,140647.46875,140760.828125,0.402099609375,0.724365234375,0.5498046875,-1.8615721464157104,-0.2136230319738388,0.7019042372703552,66.66667175292969,2717.0,1.0
1925.6947408,140149.5625,140264.359375,140893.6875,140459.359375,140389.25,140491.359375,140673.75,140787.03125,0.40087890625,0.723876953125,0.548583984375,-1.9836424589157104,-0.2746581733226776,0.6408690810203552,66.66667175292969,2718.0,1.0
1925.7040723,140118.0,140232.703125,140862.125,140427.96875,140357.421875,140459.796875,140642.375,140755.296875,0.39990234375,0.724365234375,0.546875,-1.9226073026657104,-0.3356933295726776,0.7629393935203552,66.66667175292969,2719.0,1.0
1925.7040792,140136.421875,140251.03125,140880.546875,140446.390625,140375.9375,140477.859375,140660.96875,140773.796875,0.399658203125,0.724609375,0.548828125,-1.9226073026657104,-0.2441406100988388,0.6408690810203552,66.66667175292969,2720.0,1.0
1925.7128411,140214.5625,140329.0,140958.875,140524.625,140453.90625,140556.09375,140739.015625,140851.9375,0.398681640625,0.722900390625,0.549560546875,-1.8615721464157104,-0.2136230319738388,0.6408690810203552,66.66667175292969,2721.0,1.0
1925.7128481,140255.328125,140370.125,140999.640625,140565.484375,140495.03125,140597.125,140779.875,140892.703125,0.397705078125,0.725341796875,0.54931640625,-1.8615721464157104,-0.1831054538488388,0.7629393935203552,66.66667175292969,2722.0,1.0
