Time,FZ,C3,CZ,C4,PZ,PO7,OZ,PO8,AccX,AccY,AccZ,Gyro1,Gyro2,Gyro3,Battery,Counter,Validation
21455.6918693,-204976.5,3568.322021484375,-234042.53125,-241986.875,-238077.296875,-242140.84375,-223167.421875,-329433.09375,0.323974609375,0.918701171875,0.2470703125,-1.9531248807907104,-0.1220703050494194,0.6713866591453552,66.66667175292969,76086.0,1.0
21455.6918775,-204192.84375,7285.685546875,-233204.4375,-242009.859375,-237733.609375,-242333.0625,-222999.078125,-329122.03125,0.32373046875,0.91796875,0.248779296875,-1.8615721464157104,-0.2746581733226776,0.6103515028953552,66.66667175292969,76087.0,1.0
21455.7050293,-195755.328125,30562.2578125,-231278.515625,-242217.546875,-235898.625,-241542.4375,-223517.359375,-329118.0,0.324462890625,0.92041015625,0.24853515625,-1.9531248807907104,-0.2441406100988388,0.7629393935203552,66.66667175292969,76088.0,1.0
21455.7081095,-194992.515625,30740.712890625,-231755.421875,-242243.84375,-235898.171875,-241211.0,-223774.59375,-329441.75,0.32666015625,0.9208984375,0.248291015625,-2.014159917831421,-0.3051757514476776,0.6408690810203552,66.66667175292969,76089.0,1.0
21455.7081155,-203808.765625,6746.29345703125,-233881.609375,-242031.3125,-237856.546875,-242007.265625,-223283.203125,-329509.15625,0.326416015625,0.921875,0.24755859375,-1.8310545682907104,-0.1831054538488388,0.6408690810203552,66.66667175292969,76090.0,1.0
21455.7100308,-205249.015625,4085.183837890625,-233550.796875,-242000.921875,-237999.0625,-242409.859375,-222981.1875,-329198.9375,0.325439453125,0.91943359375,0.24755859375,-1.9226073026657104,-0.0915527269244194,0.5187987685203552,66.66667175292969,76091.0,1.0
21455.7138011,-197017.578125,27471.7265625,-231505.875,-242200.390625,-236162.546875,-241700.6875,-223427.421875,-329113.53125,0.326416015625,0.919921875,0.244140625,-1.9531248807907104,-0.1831054538488388,0.5493163466453552,66.66667175292969,76092.0,1.0
21455.7406385,-194206.453125,33011.47265625,-231478.609375,-242274.6875,-235710.421875,-241194.640625,-223803.640625,-329419.5,0.326904296875,0.919189453125,0.248779296875,-1.8920897245407104,-0.2441406100988388,0.6103515028953552,66.66667175292969,76093.0,1.0
21455.7406471,-202341.328125,10721.5068359375,-233624.921875,-242078.875,-237569.640625,-241860.8125,-223413.65625,-329574.34375,0.3251953125,0.91845703125,0.24853515625,-1.9836424589157104,-0.1220703050494194,0.7019042372703552,66.66667175292969,76094.0,1.0
21455.7425244,-205998.25,1649.4693603515625,-233848.515625,-241996.453125,-238207.375,-242454.296875,-222993.53125,-329288.6875,0.32568359375,0.920166015625,0.24560546875,-1.9836424589157104,-0.2136230319738388,0.6408690810203552,66.66667175292969,76095.0,1.0
21455.7451504,-198522.921875,23579.392578125,-231820.5,-242178.125,-236491.75,-241877.8125,-223340.609375,-329128.65625,0.3271484375,0.920166015625,0.246337890625,-1.9226073026657104,-0.2136230319738388,0.7324218153953552,66.66667175292969,76096.0,1.0
21455.7475307,-193844.796875,34268.625,-231290.40625,-242297.21875,-235611.8125,-241224.15625,-223805.609375,-329394.1875,0.3251953125,0.920166015625,0.24853515625,-1.9226073026657104,-0.1525878757238388,0.7324218153953552,66.66667175292969,76097.0,1.0
21455.7500364,-200711.875,15259.08984375,-233288.203125,-242133.78125,-237222.5625,-241704.53125,-223528.984375,-329613.21875,0.325439453125,0.919921875,0.2490234375,-1.9531248807907104,-0.2746581733226776,0.6713866591453552,66.66667175292969,76098.0,1.0
21455.7525488,-206290.875,616.99755859375,-234042.0,-242003.328125,-238306.890625,-242441.78125,-223024.640625,-329372.625,0.325439453125,0.9208984375,0.24658203125,-1.9531248807907104,-0.2136230319738388,0.8239745497703552,66.66667175292969,76099.0,1.0
21455.7587785,-200078.15625,19364.658203125,-232170.890625,-242155.328125,-236834.71875,-242039.90625,-223253.96875,-329154.125,0.32568359375,0.922119140625,0.248046875,-1.9531248807907104,-0.1831054538488388,0.7629393935203552,66.66667175292969,76100.0,1.0
21455.7612788,-193847.03125,34607.02734375,-231179.984375,-242311.15625,-235591.15625,-241285.21875,-223781.109375,-329366.125,0.326171875,0.9208984375,0.248291015625,-1.9836424589157104,-0.0915527269244194,0.6713866591453552,66.66667175292969,76101.0,1.0
21455.7643757,-199022.796875,19914.6015625,-232903.578125,-242188.671875,-236858.046875,-241557.546875,-223639.578125,-329637.09375,0.327880859375,0.919189453125,0.2470703125,-2.014159917831421,-0.0610351525247097,0.6713866591453552,66.66667175292969,76102.0,1.0
21455.7643843,-206219.171875,588.7449951171875,-234160.28125,-242018.171875,-238331.203125,-242395.46875,-223082.484375,-329461.6875,0.32763671875,0.920654296875,0.24658203125,-1.9531248807907104,-0.0610351525247097,0.7019042372703552,66.66667175292969,76103.0,1.0
21455.7662931,-201673.625,14875.8916015625,-232564.453125,-242130.296875,-237194.484375,-242193.40625,-223175.828125,-329194.90625,0.325927734375,0.920166015625,0.248046875,-1.8920897245407104,-0.0915527269244194,0.7019042372703552,66.66667175292969,76104.0,1.0
21455.7718917,-194240.78125,34012.47265625,-231162.28125,-242314.109375,-235655.078125,-241379.890625,-223731.3125,-329336.59375,0.325439453125,0.92138671875,0.248291015625,-1.9226073026657104,-0.1525878757238388,0.7019042372703552,66.66667175292969,76105.0,1.0
21455.7719001,-197400.875,24344.26953125,-232501.0625,-242242.3125,-236504.0,-241434.53125,-223738.828125,-329645.96875,0.323974609375,0.9208984375,0.246337890625,-1.9226073026657104,-0.1220703050494194,0.6713866591453552,66.66667175292969,76106.0,1.0
21455.7762859,-205733.421875,1739.2340087890625,-234186.390625,-242044.28125,-238273.09375,-242319.390625,-223172.4375,-329554.75,0.32421875,0.919921875,0.2470703125,-1.9531248807907104,-0.0915527269244194,0.6713866591453552,66.66667175292969,76107.0,1.0
21455.7787994,-203180.140625,10503.0849609375,-232974.125,-242109.28125,-237549.703125,-242332.96875,-223120.3125,-329255.53125,0.325927734375,0.9208984375,0.24658203125,-2.014159917831421,-0.1220703050494194,0.6713866591453552,66.66667175292969,76108.0,1.0
21455.7825309,-194983.75,32491.212890625,-231239.453125,-242310.53125,-235800.453125,-241507.578125,-223667.75,-329318.28125,0.32470703125,0.919677734375,0.248779296875,-1.8615721464157104,-0.03051757626235485,0.6713866591453552,66.66667175292969,76109.0,1.0
21455.7912941,-195996.015625,28178.666015625,-232122.34375,-242294.625,-236187.140625,-241343.328125,-223816.703125,-329643.625,0.325439453125,0.919189453125,0.246826171875,-1.9226073026657104,-0.1525878757238388,0.7324218153953552,66.66667175292969,76110.0,1.0
21455.7943647,-204878.421875,4047.185791015625,-234110.65625,-242081.03125,-238122.0,-242207.359375,-223274.53125,-329638.0,0.32421875,0.921142578125,0.249267578125,-2.014159917831421,-0.1525878757238388,0.6713866591453552,66.66667175292969,76111.0,1.0
21455.7943732,-204498.171875,6611.3779296875,-233356.78125,-242091.671875,-237863.96875,-242438.65625,-223078.640625,-329322.75,0.326171875,0.919677734375,0.249267578125,-2.014159917831421,-0.2441406100988388,0.6713866591453552,66.66667175292969,76112.0,1.0
21455.8000308,-196057.984375,30045.931640625,-231399.3125,-242297.125,-236017.796875,-241656.4375,-223583.703125,-329302.8125,0.326904296875,0.918212890625,0.245361328125,-1.9531248807907104,-0.3356933295726776,0.6713866591453552,66.66667175292969,76113.0,1.0
21455.8093662,-194912.3125,31204.01953125,-231784.5625,-242332.625,-235933.578125,-241291.734375,-223864.09375,-329624.6875,0.325927734375,0.919921875,0.24609375,-1.8920897245407104,-0.2441406100988388,0.6713866591453552,66.66667175292969,76114.0,1.0
21455.8093743,-203654.078125,7394.31494140625,-233927.828125,-242124.296875,-237886.5,-242071.109375,-223390.671875,-329709.875,0.326904296875,0.917724609375,0.248046875,-1.9836424589157104,-0.1831054538488388,0.7629393935203552,66.66667175292969,76115.0,1.0
21455.8118675,-205488.265625,3592.819580078125,-233692.59375,-242084.0625,-238115.828125,-242507.765625,-223066.671875,-329402.21875,0.326416015625,0.92041015625,0.246826171875,-1.9226073026657104,-0.1525878757238388,0.7324218153953552,66.66667175292969,76116.0,1.0
21455.8118741,-197354.734375,26834.521484375,-231642.40625,-242281.921875,-236293.4375,-241818.96875,-223497.875,-329303.96875,0.32568359375,0.91943359375,0.248779296875,-1.9531248807907104,-0.1220703050494194,0.6713866591453552,66.66667175292969,76117.0,1.0
21455.8263052,-194196.96875,33306.78125,-231523.765625,-242363.109375,-235761.921875,-241283.15625,-223890.46875,-329602.40625,0.326416015625,0.9189453125,0.248291015625,-1.9226073026657104,-0.1525878757238388,0.6713866591453552,66.66667175292969,76118.0,1.0
21455.8312926,-202143.28125,11497.9169921875,-233654.953125,-242171.421875,-237587.15625,-241919.921875,-223519.78125,-329770.40625,0.32470703125,0.9189453125,0.24951171875,-2.014159917831421,-0.1525878757238388,0.7019042372703552,66.66667175292969,76119.0,1.0
21455.833776,-206177.78125,1321.8822021484375,-233977.984375,-242080.046875,-238310.734375,-242543.625,-223081.953125,-329491.625,0.3232421875,0.921630859375,0.24853515625,-1.9836424589157104,-0.2136230319738388,0.7019042372703552,66.66667175292969,76120.0,1.0
21455.8362759,-198898.53125,22799.31640625,-231969.0,-242257.25,-236631.40625,-241996.53125,-223408.5625,-329320.25,0.32666015625,0.919921875,0.24755859375,-1.9531248807907104,-0.1525878757238388,0.7019042372703552,66.66667175292969,76121.0,1.0
21455.8393658,-193907.296875,34394.5078125,-231350.765625,-242383.84375,-235679.21875,-241320.890625,-223887.515625,-329577.5625,0.325439453125,0.91845703125,0.247802734375,-1.9226073026657104,-0.1831054538488388,0.7324218153953552,66.66667175292969,76122.0,1.0
21455.8393745,-200494.0,16085.7470703125,-233308.6875,-242227.46875,-237234.0,-241764.703125,-223635.03125,-329807.5,0.325439453125,0.91845703125,0.244384765625,-2.014159917831421,-0.0915527269244194,0.7629393935203552,66.66667175292969,76123.0,1.0
21455.8412838,-206391.8125,505.8647155761719,-234156.625,-242088.890625,-238392.984375,-242521.984375,-223117.53125,-329577.1875,0.325927734375,0.919189453125,0.245361328125,-2.014159917831421,-0.1220703050494194,0.7324218153953552,66.66667175292969,76124.0,1.0
21455.8550271,-200457.609375,18534.693359375,-232327.34375,-242234.265625,-236975.53125,-242154.78125,-223323.265625,-329348.40625,0.325439453125,0.92041015625,0.2451171875,-1.9836424589157104,-0.2441406100988388,0.6713866591453552,66.66667175292969,76125.0,1.0
21455.8599558,-193977.828125,34568.40625,-231256.34375,-242397.34375,-235673.140625,-241387.859375,-223859.96875,-329549.3125,0.326171875,0.92138671875,0.248779296875,-1.9836424589157104,-0.2136230319738388,0.7019042372703552,66.66667175292969,76126.0,1.0
21455.8599621,-198809.125,20730.70703125,-232920.296875,-242286.75,-236870.921875,-241623.4375,-223746.609375,-329831.125,0.3251953125,0.919189453125,0.24951171875,-1.9836424589157104,-0.1831054538488388,0.7629393935203552,66.66667175292969,76127.0,1.0
21455.8599652,-206246.171875,702.0236206054688,-234260.6875,-242109.09375,-238404.171875,-242472.546875,-223183.15625,-329669.65625,0.32568359375,0.919189453125,0.247314453125,-1.9836424589157104,-0.1831054538488388,0.7629393935203552,66.66667175292969,76128.0,1.0
21455.8631086,-202037.515625,14072.48046875,-232726.015625,-242212.28125,-237336.5625,-242308.484375,-223250.578125,-329395.25,0.326171875,0.919921875,0.2490234375,-1.9531248807907104,-0.1831054538488388,0.7324218153953552,66.66667175292969,76129.0,1.0
21455.8631413,-194432.015625,33808.89453125,-231255.71875,-242399.5,-235752.53125,-241489.515625,-223808.296875,-329522.03125,0.32568359375,0.9208984375,0.247314453125,-1.8920897245407104,-0.2441406100988388,0.6103515028953552,66.66667175292969,76130.0,1.0
21455.8737684,-197211.859375,25085.990234375,-232517.875,-242339.40625,-236521.4375,-241505.15625,-223843.4375,-329837.1875,0.32568359375,0.919921875,0.246826171875,-1.8920897245407104,-0.1831054538488388,0.7019042372703552,66.66667175292969,76131.0,1.0
21455.881244,-205686.65625,2066.28466796875,-234266.40625,-242135.5625,-238328.078125,-242388.671875,-223276.6875,-329759.9375,0.32568359375,0.9208984375,0.246337890625,-1.9226073026657104,-0.1525878757238388,0.6713866591453552,66.66667175292969,76132.0,1.0
21455.8812524,-203511.390625,9759.666015625,-233130.671875,-242188.859375,-237683.09375,-242439.28125,-223196.390625,-329455.53125,0.32568359375,0.919677734375,0.2490234375,-1.9531248807907104,-0.1831054538488388,0.6103515028953552,66.66667175292969,76133.0,1.0
21455.8812565,-195231.046875,32114.361328125,-231347.0,-242392.609375,-235909.0,-241619.15625,-223739.625,-329502.8125,0.32568359375,0.918212890625,0.248046875,-1.9226073026657104,-0.2746581733226776,0.5798339247703552,66.66667175292969,76134.0,1.0
21455.8837686,-195856.0,28780.822265625,-232144.421875,-242386.53125,-236212.4375,-241418.4375,-223913.625,-329829.78125,0.32470703125,0.917724609375,0.25,-1.9226073026657104,-0.1831054538488388,0.6408690810203552,66.66667175292969,76135.0,1.0
21455.8875356,-204760.40625,4590.69091796875,-234172.0,-242172.578125,-238160.625,-242270.03125,-223380.125,-329840.875,0.324462890625,0.918212890625,0.248779296875,-1.8920897245407104,-0.0915527269244194,0.6103515028953552,66.66667175292969,76136.0,1.0
21455.8987742,-204764.515625,6054.81982421875,-233506.359375,-242175.34375,-237986.359375,-242537.625,-223161.078125,-329526.6875,0.32470703125,0.918212890625,0.247314453125,-1.9531248807907104,-0.1220703050494194,0.6713866591453552,66.66667175292969,76137.0,1.0
21455.9031118,-196341.046875,29546.861328125,-231521.609375,-242380.546875,-236136.0,-241769.265625,-223656.390625,-329491.46875,0.32421875,0.9189453125,0.247314453125,-1.8920897245407104,-0.1525878757238388,0.7324218153953552,66.66667175292969,76138.0,1.0
21455.9031205,-194833.640625,31647.74609375,-231819.15625,-242423.8125,-235971.046875,-241372.390625,-223957.15625,-329810.1875,0.323974609375,0.921630859375,0.24853515625,-1.9531248807907104,-0.0610351525247097,0.6408690810203552,66.66667175292969,76139.0,1.0
21455.9118595,-203484.296875,8078.01025390625,-233972.796875,-242217.8125,-237911.71875,-242130.109375,-223498.140625,-329910.5,0.32421875,0.922607421875,0.24755859375,-2.075195074081421,-0.2136230319738388,0.7019042372703552,66.66667175292969,76140.0,1.0
21455.9118682,-205705.703125,3160.89453125,-233832.34375,-242168.28125,-238226.609375,-242599.765625,-223150.96875,-329606.09375,0.324951171875,0.922119140625,0.24658203125,-2.014159917831421,-0.1831054538488388,0.5798339247703552,66.66667175292969,76141.0,1.0
21455.9205803,-197686.96875,26177.73828125,-231778.21875,-242363.015625,-236421.828125,-241934.3125,-223566.71875,-329493.25,0.3251953125,0.919921875,0.24755859375,-1.8920897245407104,-0.1220703050494194,0.6103515028953552,66.66667175292969,76142.0,1.0
21455.9205883,-194199.203125,33555.6015625,-231573.109375,-242452.421875,-235816.90625,-241374.078125,-223977.546875,-329786.6875,0.32568359375,0.918701171875,0.2490234375,-1.9531248807907104,-0.1831054538488388,0.6713866591453552,66.66667175292969,76143.0,1.0
21455.9293881,-201938.984375,12285.32421875,-233683.75,-242265.390625,-237603.078125,-241979.90625,-223627.0625,-329966.9375,0.3251953125,0.91796875,0.248291015625,-1.8615721464157104,-0.1831054538488388,0.7324218153953552,66.66667175292969,76144.0,1.0
21455.9293964,-206303.84375,1151.8302001953125,-234099.84375,-242166.765625,-238403.984375,-242628.5625,-223173.5,-329697.8125,0.322998046875,0.918212890625,0.2509765625,-1.9226073026657104,-0.1220703050494194,0.7324218153953552,66.66667175292969,76145.0,1.0
21455.9381152,-199205.640625,22153.44140625,-232109.015625,-242341.375,-236758.359375,-242108.5625,-223483.296875,-329516.0625,0.32470703125,0.92041015625,0.25048828125,-1.9836424589157104,-0.1220703050494194,0.7934569716453552,66.66667175292969,76146.0,1.0
21455.9381234,-193951.453125,34501.3515625,-231414.328125,-242474.421875,-235745.015625,-241415.125,-223974.6875,-329764.875,0.32470703125,0.91845703125,0.247802734375,-1.9836424589157104,-0.0915527269244194,0.8544921278953552,66.66667175292969,76147.0,1.0
21455.9462362,-200274.046875,16918.037109375,-233333.265625,-242325.90625,-237248.046875,-241826.84375,-223745.359375,-330005.8125,0.325439453125,0.919677734375,0.24755859375,-1.9531248807907104,-0.1525878757238388,0.7324218153953552,66.66667175292969,76148.0,1.0
21455.9462428,-206479.875,455.7073974609375,-234273.390625,-242180.359375,-238480.609375,-242606.203125,-223216.953125,-329786.5,0.32421875,0.920166015625,0.245361328125,-1.9836424589157104,-0.2136230319738388,0.7019042372703552,66.66667175292969,76149.0,1.0
21455.9462461,-200826.59375,17736.826171875,-232485.25,-242316.34375,-237117.0625,-242272.0,-223396.390625,-329546.34375,0.323974609375,0.91943359375,0.247802734375,-1.9836424589157104,-0.2441406100988388,0.7019042372703552,66.66667175292969,76150.0,1.0
21455.9487844,-194115.703125,34489.28125,-231337.609375,-242483.453125,-235757.453125,-241491.125,-223938.296875,-329733.75,0.32568359375,0.919189453125,0.248779296875,-2.014159917831421,-0.1525878757238388,0.6713866591453552,66.66667175292969,76151.0,1.0
21455.9512903,-198595.171875,21536.443359375,-232934.953125,-242380.71875,-236881.46875,-241686.734375,-223850.578125,-330021.90625,0.325439453125,0.919189453125,0.24755859375,-2.014159917831421,-0.2136230319738388,0.7019042372703552,66.66667175292969,76152.0,1.0
21455.9550226,-206263.875,851.8697509765625,-234357.25,-242198.0625,-238473.09375,-242546.921875,-223283.390625,-329874.65625,0.324951171875,0.919921875,0.245849609375,-1.8615721464157104,-0.2441406100988388,0.6713866591453552,66.66667175292969,76153.0,1.0
21455.9687775,-202405.6875,13237.7763671875,-232886.234375,-242291.140625,-237476.03125,-242420.140625,-223323.265625,-329592.5,0.324462890625,0.921142578125,0.248046875,-1.8920897245407104,-0.1831054538488388,0.6713866591453552,66.66667175292969,76154.0,1.0
21455.9737048,-194639.359375,33557.2109375,-231350.125,-242481.125,-235849.09375,-241597.0625,-223880.53125,-329704.53125,0.324462890625,0.92041015625,0.246337890625,-1.9226073026657104,-0.2136230319738388,0.5493163466453552,66.66667175292969,76155.0,1.0
21455.9737143,-197042.796875,25771.025390625,-232532.8125,-242429.53125,-236536.625,-241573.28125,-223938.921875,-330021.46875,0.3251953125,0.918701171875,0.24560546875,-1.9226073026657104,-0.2441406100988388,0.6408690810203552,66.66667175292969,76156.0,1.0
21455.9737186,-205633.828125,2423.91259765625,-234340.796875,-242223.265625,-238378.140625,-242455.546875,-223375.5625,-329960.59375,0.32421875,0.919189453125,0.248779296875,-1.9531248807907104,-0.1831054538488388,0.7629393935203552,66.66667175292969,76157.0,1.0
21455.9762826,-203840.046875,9033.591796875,-233286.953125,-242270.03125,-237816.9375,-242546.75,-223272.65625,-329656.25,0.323974609375,0.920654296875,0.251220703125,-2.044677495956421,-0.1525878757238388,0.7934569716453552,66.66667175292969,76158.0,1.0
21455.978792,-195498.734375,31714.712890625,-231459.75,-242476.390625,-236022.1875,-241733.859375,-223811.25,-329690.125,0.32568359375,0.9189453125,0.251953125,-2.014159917831421,-0.2441406100988388,0.7934569716453552,66.66667175292969,76159.0,1.0
21455.9875339,-195727.796875,29367.154296875,-232166.328125,-242478.4375,-236238.015625,-241494.25,-224007.859375,-330015.3125,0.32421875,0.92138671875,0.246826171875,-1.9226073026657104,-0.1220703050494194,0.7629393935203552,66.66667175292969,76160.0,1.0
21455.9918706,-204634.078125,5146.8916015625,-234228.953125,-242265.03125,-238195.75,-242333.953125,-223486.078125,-330043.28125,0.322998046875,0.920166015625,0.247802734375,-1.9226073026657104,-0.1525878757238388,0.7324218153953552,66.66667175292969,76161.0,1.0
21455.9918787,-205038.109375,5455.25634765625,-233653.609375,-242256.890625,-238108.765625,-242638.84375,-223242.53125,-329728.84375,0.323974609375,0.919921875,0.248779296875,-1.8920897245407104,-0.1525878757238388,0.7019042372703552,66.66667175292969,76162.0,1.0
21456.002529,-196642.609375,28993.25390625,-231644.28125,-242459.390625,-236256.25,-241883.96875,-223724.34375,-329677.53125,0.326171875,0.919677734375,0.24853515625,-1.9226073026657104,-0.2136230319738388,0.7324218153953552,66.66667175292969,76163.0,1.0
21456.0056093,-194769.0,32060.359375,-231852.25,-242512.6875,-236011.28125,-241456.34375,-224047.375,-329994.28125,0.323974609375,0.916259765625,0.24755859375,-1.9226073026657104,-0.1525878757238388,0.6713866591453552,66.66667175292969,76164.0,1.0
21456.0056177,-203306.203125,8787.0966796875,-234010.890625,-242309.640625,-237934.328125,-242190.28125,-223605.15625,-330109.53125,0.32666015625,0.917724609375,0.248291015625,-1.8615721464157104,-0.0915527269244194,0.6713866591453552,66.66667175292969,76165.0,1.0
21456.0075254,-205931.90625,2695.888671875,-233972.078125,-242249.921875,-238340.15625,-242694.71875,-223236.453125,-329809.3125,0.326904296875,0.919921875,0.24462890625,-1.8615721464157104,-0.1220703050494194,0.6103515028953552,66.66667175292969,76166.0,1.0
21456.0187758,-198042.015625,25460.515625,-231917.953125,-242441.25,-236556.03125,-242053.40625,-223634.21875,-329681.90625,0.32421875,0.92041015625,0.247802734375,-2.044677495956421,-0.1525878757238388,0.7019042372703552,66.66667175292969,76167.0,1.0
21456.0212817,-194220.9375,33784.9296875,-231622.828125,-242539.0625,-235874.125,-241466.71875,-224061.40625,-329968.4375,0.32421875,0.919921875,0.248779296875,-1.8615721464157104,-0.2136230319738388,0.7629393935203552,66.66667175292969,76168.0,1.0
21456.0237846,-201743.015625,13080.15234375,-233708.6875,-242361.234375,-237615.859375,-242040.703125,-223730.15625,-330160.5,0.32470703125,0.91943359375,0.248046875,-1.8920897245407104,-0.2136230319738388,0.7019042372703552,66.66667175292969,76169.0,1.0
21456.026282,-206430.34375,991.4340209960938,-234215.171875,-242252.0625,-238491.78125,-242710.8125,-223261.9375,-329898.09375,0.32470703125,0.921142578125,0.247314453125,-1.9836424589157104,-0.2136230319738388,0.7324218153953552,66.66667175292969,76170.0,1.0
21456.0381152,-199574.359375,21376.13671875,-232256.1875,-242418.625,-236893.8125,-242223.265625,-223548.921875,-329705.40625,0.326171875,0.919189453125,0.2509765625,-1.9836424589157104,-0.1220703050494194,0.7019042372703552,66.66667175292969,76171.0,1.0
21456.038123,-194033.0,34561.96875,-231476.109375,-242559.0,-235813.6875,-241512.125,-224051.9375,-329944.9375,0.32568359375,0.9189453125,0.2470703125,-1.9531248807907104,-0.1525878757238388,0.5798339247703552,66.66667175292969,76172.0,1.0
21456.0400327,-200044.1875,17763.46875,-233344.53125,-242416.75,-237252.328125,-241883.96875,-223846.203125,-330194.5625,0.325927734375,0.921142578125,0.248046875,-1.9531248807907104,-0.2441406100988388,0.6713866591453552,66.66667175292969,76173.0,1.0
21456.042548,-206546.125,441.5810852050781,-234375.484375,-242262.515625,-238555.625,-242680.59375,-223307.078125,-329986.59375,0.3251953125,0.92041015625,0.246826171875,-1.9836424589157104,-0.2136230319738388,0.5798339247703552,66.66667175292969,76174.0,1.0
21456.051274,-201190.828125,16932.69921875,-232636.875,-242392.96875,-237254.484375,-242384.65625,-223464.4375,-329739.9375,0.326171875,0.920654296875,0.2470703125,-2.044677495956421,-0.1220703050494194,0.6103515028953552,66.66667175292969,76175.0,1.0
21456.0543551,-194259.375,34383.0625,-231414.953125,-242565.875,-235841.671875,-241594.5625,-224013.125,-329915.875,0.326171875,0.92041015625,0.247802734375,-1.9836424589157104,-0.2136230319738388,0.7019042372703552,66.66667175292969,76176.0,1.0
21456.0543632,-198378.890625,22337.08203125,-232945.59375,-242474.328125,-236891.21875,-241751.390625,-223953.046875,-330211.8125,0.32666015625,0.92041015625,0.24755859375,-1.8920897245407104,-0.2746581733226776,0.7019042372703552,66.66667175292969,76177.0,1.0
21456.0562835,-206267.359375,1033.81298828125,-234449.25,-242287.46875,-238539.96875,-242622.03125,-223384.234375,-330080.84375,0.325927734375,0.9189453125,0.24755859375,-1.9226073026657104,-0.2441406100988388,0.6713866591453552,66.66667175292969,76178.0,1.0
21456.0700241,-202782.8125,12386.443359375,-233050.109375,-242371.6875,-237622.125,-242537.09375,-223397.65625,-329793.03125,0.32763671875,0.917724609375,0.248291015625,-1.8920897245407104,-0.2136230319738388,0.5493163466453552,66.66667175292969,76179.0,1.0
21456.0731064,-194868.421875,33262.34765625,-231450.71875,-242565.171875,-235955.390625,-241712.21875,-223954.5625,-329890.40625,0.327880859375,0.9189453125,0.24609375,-1.8920897245407104,-0.2136230319738388,0.6103515028953552,66.66667175292969,76180.0,1.0
21456.0731147,-196895.71875,26400.09375,-232555.703125,-242523.328125,-236562.296875,-241650.0,-224039.59375,-330211.625,0.326171875,0.920654296875,0.2470703125,-1.9226073026657104,-0.2746581733226776,0.6713866591453552,66.66667175292969,76181.0,1.0
21456.0750187,-205577.234375,2786.4580078125,-234414.828125,-242314.109375,-238430.453125,-242526.453125,-223479.640625,-330164.53125,0.325927734375,0.91943359375,0.248779296875,-1.9531248807907104,-0.2441406100988388,0.6103515028953552,66.66667175292969,76182.0,1.0
21456.0787819,-204158.25,8336.396484375,-233440.296875,-242350.953125,-237949.265625,-242655.203125,-223351.34375,-329856.59375,0.32470703125,0.91845703125,0.249267578125,-1.9226073026657104,-0.2746581733226776,0.7019042372703552,66.66667175292969,76183.0,1.0
21456.0831158,-195763.65625,31287.97265625,-231571.59375,-242557.296875,-236135.109375,-241848.65625,-223882.765625,-329875.375,0.323486328125,0.917236328125,0.243896484375,-1.9226073026657104,-0.2441406100988388,0.7324218153953552,66.66667175292969,76184.0,1.0
21456.0831239,-195609.875,29905.830078125,-232190.296875,-242568.734375,-236266.984375,-241572.484375,-224103.25,-330201.1875,0.32373046875,0.91845703125,0.248046875,-1.9531248807907104,-0.2441406100988388,0.6713866591453552,66.66667175292969,76185.0,1.0
21456.0962808,-204501.03125,5716.77197265625,-234282.0625,-242355.328125,-238228.65625,-242396.09375,-223591.75,-330243.71875,0.324951171875,0.9189453125,0.248779296875,-1.8920897245407104,-0.2441406100988388,0.7019042372703552,66.66667175292969,76186.0,1.0
21456.0993529,-205296.3125,4910.76806640625,-233797.375,-242338.34375,-238227.5,-242737.1875,-223324.515625,-329929.75,0.323486328125,0.91796875,0.248779296875,-1.9226073026657104,-0.2136230319738388,0.7324218153953552,66.66667175292969,76187.0,1.0
21456.0993595,-196953.203125,28435.0859375,-231774.09375,-242543.703125,-236381.515625,-242002.171875,-223797.484375,-329868.75,0.324462890625,0.91943359375,0.249267578125,-2.014159917831421,-0.2746581733226776,0.7629393935203552,66.66667175292969,76188.0,1.0
21456.1012887,-194716.875,32444.900390625,-231891.765625,-242604.328125,-236055.53125,-241542.4375,-224139.734375,-330181.0625,0.325927734375,0.91943359375,0.25,-2.014159917831421,-0.1525878757238388,0.8544921278953552,66.66667175292969,76189.0,1.0
21456.1075278,-203119.15625,9518.982421875,-234047.90625,-242401.734375,-237955.15625,-242249.015625,-223712.0,-330307.84375,0.32666015625,0.9189453125,0.250732421875,-1.9531248807907104,-0.2136230319738388,0.7629393935203552,66.66667175292969,76190.0,1.0
21456.1118735,-206129.046875,2312.77978515625,-234105.5625,-242333.0625,-238447.265625,-242786.265625,-223323.53125,-330013.25,0.3251953125,0.919677734375,0.24951171875,-1.8310545682907104,-0.1220703050494194,0.7019042372703552,66.66667175292969,76191.0,1.0
21456.1118822,-198388.1875,24762.962890625,-232059.75,-242522.96875,-236688.984375,-242171.5,-223705.484375,-329875.5625,0.326416015625,0.919677734375,0.2470703125,-1.8615721464157104,-0.2441406100988388,0.6713866591453552,66.66667175292969,76192.0,1.0
21456.1175232,-194239.890625,33992.890625,-231677.8125,-242631.0625,-235934.46875,-241562.5625,-224150.8125,-330156.375,0.32666015625,0.918701171875,0.248779296875,-1.8615721464157104,-0.1525878757238388,0.6713866591453552,66.66667175292969,76193.0,1.0
21456.1293542,-201525.9375,13902.427734375,-233734.171875,-242457.15625,-237629.984375,-242101.59375,-223839.5,-330358.4375,0.324462890625,0.919677734375,0.24853515625,-1.9226073026657104,-0.2746581733226776,0.7019042372703552,66.66667175292969,76194.0,1.0
21456.1293667,-206564.28125,793.1293334960938,-234337.046875,-242338.15625,-238586.015625,-242797.0,-223355.0,-330103.90625,0.3251953125,0.9169921875,0.248291015625,-1.9531248807907104,-0.2136230319738388,0.7629393935203552,66.66667175292969,76195.0,1.0
21456.1393636,-199940.296875,20596.685546875,-232407.546875,-242499.265625,-237032.75,-242341.5625,-223621.078125,-329901.46875,0.32421875,0.91650390625,0.250244140625,-1.9226073026657104,-0.1525878757238388,0.7019042372703552,66.66667175292969,76196.0,1.0
21456.1393717,-194124.1875,34598.08984375,-231544.6875,-242645.71875,-235888.4375,-241612.359375,-224134.546875,-330129.90625,0.32763671875,0.917724609375,0.24755859375,-1.8920897245407104,-0.1525878757238388,0.7019042372703552,66.66667175292969,76197.0,1.0
21456.1462337,-199830.6875,18570.27734375,-233363.125,-242511.609375,-237266.109375,-241948.4375,-223953.40625,-330388.9375,0.327392578125,0.917724609375,0.248779296875,-1.9531248807907104,-0.1525878757238388,0.6408690810203552,66.66667175292969,76198.0,1.0
21456.1462405,-206631.78125,385.8805236816406,-234488.671875,-242351.484375,-238641.984375,-242765.796875,-223406.6875,-330194.65625,0.32568359375,0.919189453125,0.248046875,-1.9531248807907104,-0.2136230319738388,0.6408690810203552,66.66667175292969,76199.0,1.0
21456.1462437,-201601.484375,16019.49609375,-232804.78125,-242473.796875,-237406.03125,-242508.578125,-223538.640625,-329939.5625,0.324462890625,0.918701171875,0.248046875,-1.9226073026657104,-0.2136230319738388,0.6713866591453552,66.66667175292969,76200.0,1.0
21456.1493548,-194454.90625,34228.92578125,-231505.96875,-242650.640625,-235938.859375,-241707.484375,-224090.203125,-330100.59375,0.3251953125,0.91943359375,0.248779296875,-1.8615721464157104,-0.1220703050494194,0.6713866591453552,66.66667175292969,76201.0,1.0
21456.1493632,-198185.5,23092.392578125,-232958.5625,-242566.859375,-236905.34375,-241820.5,-224055.421875,-330400.46875,0.325439453125,0.921630859375,0.247314453125,-1.8615721464157104,-0.2136230319738388,0.7629393935203552,66.66667175292969,76202.0,1.0
21456.1600256,-206257.53125,1243.9193115234375,-234534.453125,-242374.375,-238602.296875,-242695.875,-223484.734375,-330283.59375,0.32421875,0.919921875,0.244873046875,-1.8920897245407104,-0.1831054538488388,0.7629393935203552,66.66667175292969,76203.0,1.0
21456.1693619,-203125.953125,11618.794921875,-233206.578125,-242453.5,-237759.71875,-242650.640625,-223475.515625,-329992.9375,0.323486328125,0.9189453125,0.247802734375,-1.9226073026657104,-0.03051757626235485,0.7324218153953552,66.66667175292969,76204.0,1.0
21456.1693702,-195084.25,32989.4765625,-231551.125,-242650.1875,-236058.03125,-241824.421875,-224030.921875,-330076.90625,0.324951171875,0.92041015625,0.246826171875,-1.9531248807907104,-0.1220703050494194,0.6408690810203552,66.66667175292969,76205.0,1.0
21456.1718553,-196695.984375,27147.8046875,-232563.75,-242614.703125,-236573.734375,-241717.671875,-224139.375,-330397.4375,0.3271484375,0.919677734375,0.2490234375,-1.9531248807907104,-0.2136230319738388,0.6713866591453552,66.66667175292969,76206.0,1.0
21456.171864,-205475.65625,3256.381103515625,-234480.984375,-242404.40625,-238473.90625,-242592.078125,-223586.921875,-330369.0,0.3251953125,0.919189453125,0.24609375,-1.9836424589157104,-0.1831054538488388,0.7629393935203552,66.66667175292969,76207.0,1.0
21456.180032,-204458.65625,7654.4892578125,-233593.796875,-242433.734375,-238079.4375,-242761.59375,-223433.0625,-330059.8125,0.326904296875,0.91748046875,0.247314453125,-2.044677495956421,-0.2136230319738388,0.7324218153953552,66.66667175292969,76208.0,1.0
21456.1868749,-196031.328125,30845.05078125,-231687.28125,-242640.0,-236249.1875,-241962.296875,-223955.28125,-330063.03125,0.324951171875,0.9189453125,0.2490234375,-1.8615721464157104,-0.3051757514476776,0.6408690810203552,66.66667175292969,76209.0,1.0
21456.1868833,-195501.6875,30425.912109375,-232218.71875,-242660.734375,-236298.984375,-241652.234375,-224198.734375,-330387.59375,0.323486328125,0.919677734375,0.24853515625,-1.8920897245407104,-0.1831054538488388,0.7019042372703552,66.66667175292969,76210.0,1.0
21456.1887821,-204354.3125,6326.52734375,-234334.53125,-242448.9375,-238261.46875,-242460.734375,-223700.375,-330447.03125,0.32568359375,0.919677734375,0.248291015625,-1.9226073026657104,-0.1831054538488388,0.7324218153953552,66.66667175292969,76211.0,1.0
21456.1950978,-205547.546875,4369.498046875,-233943.65625,-242421.9375,-238347.84375,-242837.765625,-223409.8125,-330135.0,0.324951171875,0.921142578125,0.246826171875,-1.9531248807907104,-0.2136230319738388,0.6103515028953552,66.66667175292969,76212.0,1.0
21456.2043548,-197268.640625,27826.849609375,-231902.578125,-242622.828125,-236505.25,-242117.765625,-223865.875,-330057.0625,0.3271484375,0.919921875,0.246826171875,-1.9836424589157104,-0.2746581733226776,0.7324218153953552,66.66667175292969,76213.0,1.0
21456.2043609,-194678.515625,32786.97265625,-231931.1875,-242693.375,-236100.234375,-241629.609375,-224228.859375,-330365.59375,0.327392578125,0.919189453125,0.24853515625,-1.9226073026657104,-0.2136230319738388,0.7629393935203552,66.66667175292969,76214.0,1.0
21456.2156128,-202929.359375,10246.576171875,-234083.9375,-242496.859375,-237975.8125,-242311.875,-223822.25,-330508.65625,0.326904296875,0.917724609375,0.25048828125,-1.9226073026657104,-0.2441406100988388,0.7934569716453552,66.66667175292969,76215.0,1.0
21456.2156214,-206325.5625,1924.57470703125,-234240.75,-242417.828125,-238555.4375,-242880.6875,-223413.5625,-330218.0625,0.32763671875,0.91796875,0.24951171875,-1.9531248807907104,-0.1525878757238388,0.7629393935203552,66.66667175292969,76216.0,1.0
21456.222452,-198756.546875,24007.02734375,-232205.671875,-242601.203125,-236826.484375,-242291.484375,-223774.046875,-330066.15625,0.326171875,0.918701171875,0.246337890625,-2.014159917831421,-0.2136230319738388,0.7324218153953552,66.66667175292969,76217.0,1.0
21456.2224603,-194285.3125,34136.30078125,-231734.046875,-242715.453125,-235996.53125,-241656.34375,-224232.625,-330337.875,0.325439453125,0.91943359375,0.247314453125,-1.9531248807907104,-0.1525878757238388,0.6713866591453552,66.66667175292969,76218.0,1.0
21456.2224647,-201327.796875,14664.890625,-233759.375,-242548.796875,-237643.9375,-242162.03125,-223943.390625,-330551.90625,0.3251953125,0.918212890625,0.246826171875,-1.9836424589157104,-0.2136230319738388,0.7019042372703552,66.66667175292969,76219.0,1.0
21456.2256077,-206682.828125,644.9819946289062,-234452.640625,-242423.546875,-238675.609375,-242881.3125,-223446.90625,-330306.21875,0.324462890625,0.919677734375,0.24658203125,-1.9836424589157104,-0.2136230319738388,0.6408690810203552,66.66667175292969,76220.0,1.0
21456.2256156,-200307.578125,19819.29296875,-232559.0,-242580.546875,-237171.515625,-242459.390625,-223692.328125,-330094.6875,0.32470703125,0.920654296875,0.24755859375,-1.9836424589157104,-0.1220703050494194,0.6103515028953552,66.66667175292969,76221.0,1.0
21456.2387468,-194227.734375,34595.49609375,-231614.953125,-242731.90625,-235963.4375,-241712.578125,-224214.03125,-330311.9375,0.325927734375,0.919189453125,0.243408203125,-2.105712652206421,-0.1831054538488388,0.7019042372703552,66.66667175292969,76222.0,1.0
21456.2487169,-199611.8125,19388.619140625,-233379.40625,-242608.34375,-237277.09375,-242012.265625,-224060.953125,-330582.59375,0.326171875,0.91748046875,0.245849609375,-1.9226073026657104,-0.1525878757238388,0.6103515028953552,66.66667175292969,76223.0,1.0
21456.2487251,-206653.421875,507.5634460449219,-234585.0625,-242440.984375,-238711.453125,-242840.984375,-223506.640625,-330399.125,0.32177734375,0.9189453125,0.24658203125,-2.014159917831421,-0.1831054538488388,0.6103515028953552,66.66667175292969,76224.0,1.0
21456.2487291,-201911.71875,15335.1748046875,-232951.59375,-242555.59375,-237533.96875,-242616.3125,-223614.28125,-330136.09375,0.32275390625,0.918212890625,0.2490234375,-1.9531248807907104,-0.2441406100988388,0.8239745497703552,66.66667175292969,76225.0,1.0
21456.2518554,-194581.25,34095.7109375,-231587.0625,-242737.453125,-236021.203125,-241807.53125,-224169.765625,-330286.125,0.32421875,0.918701171875,0.248779296875,-1.9226073026657104,-0.1831054538488388,0.7324218153953552,66.66667175292969,76226.0,1.0
21456.2518637,-197967.4375,23875.5078125,-232972.875,-242661.453125,-236916.96875,-241883.96875,-224160.828125,-330592.5,0.324462890625,0.919677734375,0.249267578125,-1.9531248807907104,-0.2441406100988388,0.7019042372703552,66.66667175292969,76227.0,1.0
21456.2537721,-206232.140625,1490.9508056640625,-234624.484375,-242463.421875,-238667.5625,-242768.921875,-223592.28125,-330493.0,0.325439453125,0.92236328125,0.25048828125,-1.8615721464157104,-0.3051757514476776,0.7019042372703552,66.66667175292969,76228.0,1.0
21456.2625091,-203500.484375,10757.1796875,-233372.96875,-242530.125,-237905.359375,-242764.1875,-223551.4375,-330193.9375,0.3271484375,0.919677734375,0.25048828125,-1.9226073026657104,-0.3051757514476776,0.6408690810203552,66.66667175292969,76229.0,1.0
21456.2650362,-195360.421875,32601.00390625,-231664.390625,-242730.65625,-236172.484375,-241941.109375,-224102.265625,-330263.5,0.326416015625,0.919189453125,0.25,-1.9531248807907104,-0.2441406100988388,0.6408690810203552,66.66667175292969,76230.0,1.0
21456.268772,-196549.265625,27772.1328125,-232585.921875,-242709.46875,-236595.734375,-241792.78125,-224237.09375,-330586.96875,0.325439453125,0.917236328125,0.248291015625,-1.9836424589157104,-0.2441406100988388,0.7019042372703552,66.66667175292969,76231.0,1.0
21456.2831032,-205388.140625,3740.69873046875,-234547.859375,-242495.703125,-238515.390625,-242656.546875,-223689.03125,-330571.0625,0.327392578125,0.91943359375,0.247314453125,-1.9531248807907104,-0.0915527269244194,0.6713866591453552,66.66667175292969,76232.0,1.0
21456.2831118,-204752.359375,7035.07763671875,-233741.953125,-242514.828125,-238203.09375,-242863.25,-223510.75,-330258.65625,0.328369140625,0.919189453125,0.244873046875,-1.9531248807907104,-0.1831054538488388,0.7324218153953552,66.66667175292969,76233.0,1.0
21456.2850207,-196310.109375,30371.8203125,-231803.421875,-242722.875,-236363.359375,-242076.015625,-224025.640625,-330248.90625,0.32568359375,0.918701171875,0.24853515625,-1.8920897245407104,-0.2136230319738388,0.7324218153953552,66.66667175292969,76234.0,1.0
21456.2875359,-195404.59375,30916.845703125,-232245.90625,-242751.40625,-236331.265625,-241731.359375,-224290.734375,-330572.125,0.3271484375,0.91845703125,0.248779296875,-1.8615721464157104,-0.2746581733226776,0.7324218153953552,66.66667175292969,76235.0,1.0
21456.292531,-204198.84375,6983.93701171875,-234380.5,-242539.6875,-238289.1875,-242520.546875,-223805.25,-330645.78125,0.324951171875,0.9189453125,0.251220703125,-1.8920897245407104,-0.2441406100988388,0.6713866591453552,66.66667175292969,76236.0,1.0
21456.2951359,-205798.0625,3856.391357421875,-234088.125,-242504.90625,-238466.296875,-242935.84375,-223493.578125,-330336.90625,0.322998046875,0.920654296875,0.25048828125,-1.9226073026657104,-0.2136230319738388,0.6103515028953552,66.66667175292969,76237.0,1.0
21456.2975234,-197603.46875,27193.9375,-232037.140625,-242704.375,-236635.421875,-242236.6875,-223936.5,-330245.96875,0.323486328125,0.920166015625,0.24951171875,-1.8920897245407104,-0.1831054538488388,0.6713866591453552,66.66667175292969,76238.0,1.0
21456.3093528,-194658.046875,33096.140625,-231973.03125,-242780.375,-236148.609375,-241716.609375,-224316.03125,-330547.53125,0.32666015625,0.91845703125,0.25244140625,-1.8310545682907104,-0.2441406100988388,0.5798339247703552,66.66667175292969,76239.0,1.0
21456.3093614,-202736.5,10997.595703125,-234114.328125,-242587.078125,-237992.796875,-242369.8125,-223926.671875,-330703.46875,0.326904296875,0.919921875,0.24951171875,-1.8615721464157104,-0.2746581733226776,0.7324218153953552,66.66667175292969,76240.0,1.0
21456.3118545,-206506.34375,1577.13916015625,-234369.140625,-242499.1875,-238657.546875,-242969.46875,-223500.015625,-330420.3125,0.324462890625,0.918701171875,0.247802734375,-1.8615721464157104,-0.1831054538488388,0.7324218153953552,66.66667175292969,76241.0,1.0
21456.3118629,-199117.03125,23256.8125,-232349.609375,-242678.890625,-236960.6875,-242407.90625,-223841.640625,-330256.59375,0.323974609375,0.91845703125,0.25,-1.8920897245407104,-0.1831054538488388,0.6103515028953552,66.66667175292969,76242.0,1.0
21456.3137735,-194329.828125,34282.125,-231789.5625,-242801.5625,-236059.203125,-241751.03125,-224315.234375,-330520.96875,0.3251953125,0.918701171875,0.2490234375,-1.9836424589157104,-0.1525878757238388,0.6103515028953552,66.66667175292969,76243.0,1.0
21456.3225238,-201101.515625,15518.19140625,-233776.375,-242641.078125,-237652.4375,-242220.234375,-224048.625,-330745.3125,0.323974609375,0.919189453125,0.248046875,-1.8310545682907104,-0.1220703050494194,0.5798339247703552,66.66667175292969,76244.0,1.0
21456.3268607,-206787.703125,534.9219970703125,-234565.828125,-242508.578125,-238761.4375,-242962.9375,-223539.71875,-330510.0,0.326416015625,0.9189453125,0.246826171875,-1.8920897245407104,-0.1831054538488388,0.7019042372703552,66.66667175292969,76245.0,1.0
21456.3268689,-200669.5,19029.650390625,-232708.765625,-242658.5,-237307.765625,-242572.671875,-223761.171875,-330287.8125,0.32568359375,0.917724609375,0.247802734375,-1.9226073026657104,-0.2136230319738388,0.7019042372703552,66.66667175292969,76246.0,1.0
21456.3300207,-194336.265625,34579.22265625,-231685.5,-242816.125,-236040.0625,-241812.0,-224291.90625,-330494.34375,0.325927734375,0.918701171875,0.246337890625,-1.8615721464157104,-0.2746581733226776,0.7324218153953552,66.66667175292969,76247.0,1.0
21456.3387718,-199382.671875,20232.62109375,-233388.4375,-242699.1875,-237282.46875,-242071.546875,-224162.265625,-330771.15625,0.32568359375,0.920166015625,0.24853515625,-1.8615721464157104,-0.1831054538488388,0.7019042372703552,66.66667175292969,76248.0,1.0
21456.3556441,-206683.375,613.8683471679688,-234681.4375,-242526.28125,-238781.734375,-242914.921875,-223602.484375,-330602.34375,0.324951171875,0.9189453125,0.248046875,-1.9531248807907104,-0.1831054538488388,0.7019042372703552,66.66667175292969,76249.0,1.0
21456.3556524,-202274.09375,14528.8134765625,-233108.765625,-242634.546875,-237672.90625,-242729.234375,-223686.53125,-330333.21875,0.32470703125,0.917724609375,0.24609375,-2.136230230331421,-0.1525878757238388,0.7019042372703552,66.66667175292969,76250.0,1.0
21456.3806255,-194760.953125,33916.359375,-231675.03125,-242819.625,-236113.203125,-241913.5625,-224243.796875,-330469.03125,0.32373046875,0.91943359375,0.24853515625,-1.9836424589157104,-0.1525878757238388,0.5798339247703552,66.66667175292969,76251.0,1.0
21456.3806342,-197760.28125,24643.15625,-232982.609375,-242752.296875,-236927.78125,-241949.6875,-224261.59375,-330780.09375,0.325927734375,0.91943359375,0.24609375,-1.9226073026657104,-0.0915527269244194,0.7019042372703552,66.66667175292969,76252.0,1.0
21456.385028,-206186.890625,1795.1134033203125,-234703.875,-242550.328125,-238721.828125,-242837.953125,-223694.125,-330696.65625,0.32568359375,0.920654296875,0.243896484375,-1.9226073026657104,-0.1831054538488388,0.7324218153953552,66.66667175292969,76253.0,1.0
21456.387528,-203838.265625,9989.263671875,-233530.328125,-242609.421875,-238041.0,-242873.890625,-223627.609375,-330393.5625,0.32470703125,0.919921875,0.2451171875,-2.014159917831421,-0.2441406100988388,0.6408690810203552,66.66667175292969,76254.0,1.0
21456.390019,-195603.078125,32249.634765625,-231771.15625,-242812.734375,-236280.296875,-242053.40625,-224175.21875,-330449.28125,0.326171875,0.917724609375,0.248779296875,-1.8920897245407104,-0.2746581733226776,0.7629393935203552,66.66667175292969,76255.0,1.0
21456.3925302,-196398.265625,28404.0625,-232605.140625,-242801.296875,-236617.984375,-241866.71875,-224334.90625,-330773.28125,0.3271484375,0.919921875,0.247314453125,-1.8005369901657104,-0.1525878757238388,0.7324218153953552,66.66667175292969,76256.0,1.0
21456.3950985,-205281.203125,4242.00390625,-234612.0625,-242589.484375,-238557.671875,-242723.78125,-223797.484375,-330775.625,0.326904296875,0.91845703125,0.244384765625,-1.9226073026657104,-0.1831054538488388,0.6408690810203552,66.66667175292969,76257.0,1.0
21456.3975221,-205042.03125,6411.37451171875,-233894.390625,-242599.046875,-238332.015625,-242968.5625,-223594.171875,-330462.875,0.32275390625,0.919189453125,0.245361328125,-2.014159917831421,-0.2136230319738388,0.6408690810203552,66.66667175292969,76258.0,1.0
21456.4000182,-196599.875,29865.240234375,-231923.5,-242803.25,-236481.375,-242190.1875,-224095.203125,-330435.59375,0.326171875,0.919677734375,0.24951171875,-1.9836424589157104,-0.1525878757238388,0.6408690810203552,66.66667175292969,76259.0,1.0
21456.4025371,-195320.8125,31378.6328125,-232277.546875,-242841.703125,-236368.015625,-241813.078125,-224383.71875,-330757.1875,0.325439453125,0.91943359375,0.24951171875,-2.014159917831421,-0.2746581733226776,0.7019042372703552,66.66667175292969,76260.0,1.0
21456.4050364,-204035.140625,7657.2607421875,-234426.359375,-242633.734375,-238317.078125,-242583.21875,-223914.515625,-330847.84375,0.32568359375,0.9189453125,0.245361328125,-1.9836424589157104,-0.2136230319738388,0.7324218153953552,66.66667175292969,76261.0,1.0
21456.4075239,-206014.15625,3429.5625,-234226.171875,-242590.015625,-238577.96875,-243031.78125,-223580.671875,-330541.90625,0.32470703125,0.921142578125,0.248291015625,-1.9836424589157104,-0.2441406100988388,0.7019042372703552,66.66667175292969,76262.0,1.0
21456.410021,-197921.671875,26583.736328125,-232170.890625,-242786.625,-236762.03125,-242353.359375,-224007.9375,-330437.75,0.323486328125,0.92041015625,0.2490234375,-1.9531248807907104,-0.1831054538488388,0.4882812201976776,66.66667175292969,76263.0,1.0
21456.4131083,-194636.859375,33400.30078125,-232019.078125,-242871.203125,-236202.421875,-241808.328125,-224408.3125,-330734.75,0.322998046875,0.919189453125,0.249267578125,-1.9226073026657104,-0.2441406100988388,0.6103515028953552,66.66667175292969,76264.0,1.0
21456.4131166,-202514.5,11793.048828125,-234147.671875,-242683.890625,-238016.765625,-242435.796875,-224047.015625,-330909.90625,0.324462890625,0.92041015625,0.248291015625,-1.9836424589157104,-0.3051757514476776,0.6713866591453552,66.66667175292969,76265.0,1.0
21456.4150373,-206678.453125,1256.436279296875,-234506.375,-242588.140625,-238769.921875,-243068.171875,-223601.140625,-330634.25,0.323974609375,0.919189453125,0.250244140625,-1.9836424589157104,-0.1525878757238388,0.7629393935203552,66.66667175292969,76266.0,1.0
21456.4181077,-199468.671875,22552.822265625,-232503.03125,-242764.28125,-237103.65625,-242532.359375,-223922.375,-330458.5,0.325927734375,0.91943359375,0.247314453125,-1.9531248807907104,-0.1831054538488388,0.7629393935203552,66.66667175292969,76267.0,1.0
21456.4181162,-194376.6875,34434.7421875,-231854.75,-242893.5625,-236127.328125,-241850.09375,-224405.796875,-330711.40625,0.32373046875,0.918212890625,0.245361328125,-1.9836424589157104,-0.1831054538488388,0.6408690810203552,66.66667175292969,76268.0,1.0
21456.4200197,-200863.609375,16397.150390625,-233798.984375,-242741.46875,-237663.15625,-242281.921875,-224161.8125,-330946.03125,0.323974609375,0.920166015625,0.246826171875,-2.044677495956421,-0.1525878757238388,0.6713866591453552,66.66667175292969,76269.0,1.0
21456.4318511,-206874.96875,486.46337890625,-234683.046875,-242599.765625,-238849.046875,-243045.90625,-223639.140625,-330720.0,0.32568359375,0.92041015625,0.248779296875,-1.8920897245407104,-0.1525878757238388,0.6713866591453552,66.66667175292969,76270.0,1.0
21456.4318593,-201032.84375,18262.626953125,-232866.65625,-242742.375,-237449.03125,-242690.515625,-223836.640625,-330486.84375,0.326416015625,0.921630859375,0.249267578125,-1.9836424589157104,-0.2441406100988388,0.5798339247703552,66.66667175292969,76271.0,1.0
21456.4406032,-194470.015625,34551.7734375,-231770.171875,-242908.125,-236127.234375,-241919.828125,-224377.28125,-330684.78125,0.326904296875,0.921875,0.246337890625,-2.014159917831421,-0.2136230319738388,0.6408690810203552,66.66667175292969,76272.0,1.0
21456.4406117,-199171.484375,21045.419921875,-233407.65625,-242797.625,-237296.5,-242137.984375,-224270.703125,-330966.6875,0.324951171875,0.9208984375,0.249267578125,-1.9226073026657104,-0.2136230319738388,0.6713866591453552,66.66667175292969,76273.0,1.0
21456.4425182,-206702.59375,752.2703247070312,-234778.796875,-242616.578125,-238852.09375,-242990.65625,-223703.328125,-330808.53125,0.325927734375,0.917724609375,0.24365234375,-1.9531248807907104,-0.1831054538488388,0.5493163466453552,66.66667175292969,76274.0,1.0
21456.4450791,-202625.71875,13762.3271484375,-233266.75,-242716.4375,-237811.578125,-242841.796875,-223761.625,-330531.625,0.32568359375,0.9208984375,0.24462890625,-1.9226073026657104,-0.0915527269244194,0.5798339247703552,66.66667175292969,76275.0,1.0
21456.4540118,-194958.984375,33718.4140625,-231771.59375,-242906.96875,-236212.0,-242024.4375,-224322.5625,-330655.90625,0.3251953125,0.9208984375,0.25146484375,-1.9531248807907104,-0.1831054538488388,0.6408690810203552,66.66667175292969,76276.0,1.0
21456.4540197,-197588.0,25354.8359375,-233003.359375,-242849.03125,-236950.859375,-242024.515625,-224368.515625,-330972.65625,0.325439453125,0.920654296875,0.249755859375,-1.8920897245407104,-0.2136230319738388,0.7324218153953552,66.66667175292969,76277.0,1.0
21456.4587687,-206119.84375,2181.3515625,-234779.6875,-242644.015625,-238775.03125,-242908.75,-223802.75,-330903.5625,0.32568359375,0.91943359375,0.246826171875,-1.9226073026657104,-0.1525878757238388,0.7019042372703552,66.66667175292969,76278.0,1.0
21456.4612722,-204080.90625,9483.041015625,-233670.421875,-242694.984375,-238157.765625,-242973.671875,-223711.828125,-330596.53125,0.325927734375,0.917724609375,0.24755859375,-1.8005369901657104,-0.1220703050494194,0.5798339247703552,66.66667175292969,76279.0,1.0
21456.4675289,-195767.9375,31982.486328125,-231865.75,-242896.6875,-236370.953125,-242152.1875,-224251.578125,-330635.59375,0.326171875,0.9189453125,0.249755859375,-1.9836424589157104,-0.2746581733226776,0.6103515028953552,66.66667175292969,76280.0,1.0
21456.4718746,-196247.515625,29009.97265625,-232629.453125,-242892.578125,-236640.515625,-241934.9375,-224431.640625,-330960.59375,0.32666015625,0.91845703125,0.24755859375,-1.9836424589157104,-0.1831054538488388,0.6103515028953552,66.66667175292969,76281.0,1.0
21456.4718826,-205163.0,4776.6572265625,-234675.0,-242681.03125,-238595.40625,-242784.390625,-223903.25,-330979.28125,0.32568359375,0.91943359375,0.2490234375,-1.9226073026657104,-0.2136230319738388,0.6103515028953552,66.66667175292969,76282.0,1.0
21456.4800291,-205321.4375,5806.89404296875,-234045.65625,-242681.578125,-238455.484375,-243067.71875,-223675.703125,-330665.8125,0.32470703125,0.91845703125,0.248046875,-1.9836424589157104,-0.3051757514476776,0.6713866591453552,66.66667175292969,76283.0,1.0
21456.4951253,-196901.71875,29348.466796875,-232051.265625,-242887.5625,-236604.140625,-242305.34375,-224167.984375,-330626.3125,0.325927734375,0.92138671875,0.2470703125,-1.9531248807907104,-0.2746581733226776,0.7019042372703552,66.66667175292969,76284.0,1.0
21456.4951329,-195256.09375,31818.603515625,-232316.171875,-242935.84375,-236409.40625,-241897.03125,-224478.140625,-330945.5,0.3251953125,0.919677734375,0.246826171875,-2.014159917831421,-0.1220703050494194,0.7324218153953552,66.66667175292969,76285.0,1.0
21456.4951357,-203870.625,8339.2578125,-234472.3125,-242729.40625,-238343.453125,-242644.296875,-224022.96875,-331049.375,0.32568359375,0.919921875,0.245849609375,-1.9531248807907104,-0.2136230319738388,0.6103515028953552,66.66667175292969,76286.0,1.0
21456.5006037,-206250.1875,2959.1923828125,-234370.921875,-242675.140625,-238694.46875,-243127.890625,-223667.65625,-330746.28125,0.325927734375,0.9189453125,0.247314453125,-1.9836424589157104,-0.3051757514476776,0.7629393935203552,66.66667175292969,76287.0,1.0
21456.5006126,-198270.625,25904.064453125,-232311.25,-242866.640625,-236894.53125,-242469.859375,-224076.515625,-330626.125,0.326904296875,0.9189453125,0.25,-1.8615721464157104,-0.1525878757238388,0.7629393935203552,66.66667175292969,76288.0,1.0
21456.5025294,-194663.5,33643.9375,-232073.796875,-242960.25,-236262.953125,-241901.3125,-224494.765625,-330917.9375,0.32666015625,0.918701171875,0.2470703125,-1.8920897245407104,-0.2136230319738388,0.6713866591453552,66.66667175292969,76289.0,1.0
21456.5050315,-202325.5,12576.0751953125,-234174.59375,-242777.859375,-238032.40625,-242495.515625,-224150.1875,-331102.21875,0.325439453125,0.918701171875,0.24560546875,-1.9836424589157104,-0.1525878757238388,0.8239745497703552,66.66667175292969,76290.0,1.0
21456.5162709,-206818.109375,1063.8536376953125,-234626.90625,-242676.125,-238863.359375,-243153.203125,-223692.328125,-330836.84375,0.32666015625,0.920166015625,0.24755859375,-2.014159917831421,-0.3356933295726776,0.7629393935203552,66.66667175292969,76291.0,1.0
21456.5193452,-199829.609375,21799.92578125,-232651.1875,-242846.265625,-237239.28125,-242647.859375,-223991.9375,-330650.1875,0.327392578125,0.9189453125,0.248779296875,-1.9836424589157104,-0.2746581733226776,0.6713866591453552,66.66667175292969,76292.0,1.0
21456.5193525,-194450.703125,34511.18359375,-231919.125,-242981.71875,-236196.4375,-241946.640625,-224487.703125,-330894.53125,0.326171875,0.918701171875,0.24755859375,-1.8920897245407104,-0.2746581733226776,0.6713866591453552,66.66667175292969,76293.0,1.0
21456.5212756,-200642.046875,17233.017578125,-233816.15625,-242834.453125,-237671.921875,-242340.21875,-224266.59375,-331138.15625,0.32568359375,0.919677734375,0.247802734375,-1.8310545682907104,-0.3051757514476776,0.6103515028953552,66.66667175292969,76294.0,1.0
21456.5250174,-206960.359375,428.7958984375,-234792.21875,-242683.71875,-238930.140625,-243123.421875,-223731.9375,-330921.4375,0.326416015625,0.91845703125,0.24658203125,-1.9531248807907104,-0.2136230319738388,0.6408690810203552,66.66667175292969,76295.0,1.0
21456.5343432,-201418.90625,17408.25390625,-233024.71875,-242819.890625,-237591.453125,-242805.84375,-223905.65625,-330681.1875,0.327392578125,0.91943359375,0.25,-1.8920897245407104,-0.2441406100988388,0.6713866591453552,66.66667175292969,76296.0,1.0
21456.5343496,-194618.171875,34445.73828125,-231846.96875,-242988.953125,-236209.765625,-242020.671875,-224450.0625,-330863.6875,0.325927734375,0.918701171875,0.250244140625,-1.9226073026657104,-0.2441406100988388,0.6713866591453552,66.66667175292969,76297.0,1.0
21456.5368505,-198950.921875,21866.0859375,-233416.6875,-242889.359375,-237303.296875,-242199.140625,-224372.1875,-331154.0625,0.326171875,0.919189453125,0.2490234375,-1.9836424589157104,-0.1831054538488388,0.6408690810203552,66.66667175292969,76298.0,1.0
21456.5368898,-206716.453125,913.6499633789062,-234874.828125,-242706.421875,-238921.5625,-243066.375,-223805.34375,-331014.78125,0.326904296875,0.918701171875,0.247314453125,-1.9226073026657104,-0.1220703050494194,0.7324218153953552,66.66667175292969,76299.0,1.0
21456.5762688,-203002.21875,12909.7421875,-233430.640625,-242796.90625,-237955.34375,-242956.40625,-223835.390625,-330730.90625,0.324462890625,0.918701171875,0.24853515625,-1.8615721464157104,-0.1220703050494194,0.7019042372703552,66.66667175292969,76300.0,1.0
21456.5805313,-195175.984375,33449.03125,-231869.40625,-242990.03125,-236313.375,-242134.140625,-224394.71875,-330839.375,0.3251953125,0.918212890625,0.24951171875,-1.9531248807907104,-0.1525878757238388,0.6408690810203552,66.66667175292969,76301.0,1.0
21456.5805397,-197396.40625,26090.65625,-233014.0,-242940.40625,-236963.90625,-242091.75,-224467.046875,-331158.90625,0.325439453125,0.918212890625,0.248046875,-1.8920897245407104,-0.1525878757238388,0.5493163466453552,66.66667175292969,76302.0,1.0
21456.5805574,-206070.390625,2516.448974609375,-234856.9375,-242731.375,-238829.296875,-242977.328125,-223905.578125,-331107.59375,0.324462890625,0.91845703125,0.24609375,-1.9531248807907104,-0.1525878757238388,0.6103515028953552,66.66667175292969,76303.0,1.0
21456.5805614,-204446.140625,8648.60546875,-233834.84375,-242775.8125,-238301.609375,-243087.21875,-223788.984375,-330798.59375,0.324462890625,0.91845703125,0.24658203125,-2.014159917831421,-0.1525878757238388,0.6408690810203552,66.66667175292969,76304.0,1.0
21456.5836982,-196060.65625,31534.826171875,-231983.140625,-242980.1875,-236491.65625,-242272.265625,-224323.453125,-330823.0,0.32275390625,0.918701171875,0.24560546875,-1.9531248807907104,-0.0915527269244194,0.6408690810203552,66.66667175292969,76305.0,1.0
21456.5837063,-196117.515625,29604.08203125,-232650.015625,-242985.640625,-236668.421875,-242014.78125,-224529.28125,-331146.75,0.3232421875,0.91845703125,0.248291015625,-1.8615721464157104,-0.1220703050494194,0.6713866591453552,66.66667175292969,76306.0,1.0
21456.5837104,-205023.265625,5369.6044921875,-234727.296875,-242772.5,-238628.84375,-242847.78125,-224010.625,-331180.8125,0.324462890625,0.920166015625,0.2490234375,-1.9226073026657104,-0.1220703050494194,0.6408690810203552,66.66667175292969,76307.0,1.0
21456.5862618,-205602.53125,5194.0986328125,-234196.3125,-242763.828125,-238581.8125,-243171.078125,-223759.21875,-330869.5,0.325439453125,0.91845703125,0.2470703125,-1.9531248807907104,-0.1831054538488388,0.6713866591453552,66.66667175292969,76308.0,1.0
21456.5887766,-197224.828125,28753.46484375,-232180.71875,-242968.75,-236731.359375,-242424.625,-224238.171875,-330814.40625,0.3271484375,0.920166015625,0.248046875,-1.9226073026657104,-0.2136230319738388,0.7629393935203552,66.66667175292969,76309.0,1.0
21456.5912781,-195188.671875,32238.279296875,-232347.015625,-243023.28125,-236448.125,-241979.90625,-224567.625,-331127.15625,0.324951171875,0.9208984375,0.2470703125,-1.9531248807907104,-0.2136230319738388,0.6713866591453552,66.66667175292969,76310.0,1.0
21456.5937735,-203674.015625,9067.1201171875,-234507.546875,-242818.71875,-238365.265625,-242703.125,-224133.375,-331248.84375,0.327392578125,0.919189453125,0.247314453125,-1.8920897245407104,-0.1525878757238388,0.6103515028953552,66.66667175292969,76311.0,1.0
21456.5962623,-206511.4375,2352.6552734375,-234520.5,-242755.0625,-238818.65625,-243228.46875,-223755.09375,-330952.1875,0.327392578125,0.917724609375,0.246337890625,-1.8615721464157104,-0.1525878757238388,0.6408690810203552,66.66667175292969,76312.0,1.0
21456.5987723,-198715.25,25021.974609375,-232474.25,-242946.21875,-237051.265625,-242603.875,-224145.625,-330820.75,0.326416015625,0.918701171875,0.24609375,-1.9531248807907104,-0.0915527269244194,0.7019042372703552,66.66667175292969,76313.0,1.0
21456.6012834,-194693.1875,33869.51171875,-232122.609375,-243048.046875,-236320.265625,-241999.125,-224578.359375,-331101.15625,0.325439453125,0.917724609375,0.24462890625,-2.014159917831421,-0.1525878757238388,0.6103515028953552,66.66667175292969,76314.0,1.0
21456.6100149,-202102.15625,13422.5810546875,-234194.171875,-242871.46875,-238037.953125,-242552.65625,-224253.625,-331295.53125,0.32470703125,0.91845703125,0.24560546875,-2.044677495956421,-0.1525878757238388,0.5493163466453552,66.66667175292969,76315.0,1.0
21456.614426,-206944.171875,896.3944091796875,-234741.421875,-242758.640625,-238949.71875,-243233.9375,-223778.25,-331035.34375,0.32470703125,0.918212890625,0.245361328125,-1.9836424589157104,-0.1525878757238388,0.5798339247703552,66.66667175292969,76316.0,1.0
21456.6144333,-200179.90625,21048.458984375,-232792.359375,-242922.96875,-237369.375,-242759.53125,-224056.9375,-330838.28125,0.324462890625,0.921142578125,0.243896484375,-1.9226073026657104,-0.2441406100988388,0.5493163466453552,66.66667175292969,76317.0,1.0
21456.6162696,-194514.359375,34597.28515625,-231975.796875,-243064.859375,-236260.546875,-242039.625,-224564.140625,-331072.625,0.325927734375,0.921142578125,0.247802734375,-1.9226073026657104,-0.2746581733226776,0.6408690810203552,66.66667175292969,76318.0,1.0
21456.6306075,-200397.4375,18122.884765625,-233824.375,-242927.0,-237675.140625,-242397.34375,-224370.125,-331327.15625,0.324951171875,0.92041015625,0.244873046875,-1.9531248807907104,-0.3356933295726776,0.6408690810203552,66.66667175292969,76319.0,1.0
21456.6306165,-207024.734375,432.10394287109375,-234898.15625,-242771.703125,-239010.34375,-243203.359375,-223829.390625,-331126.53125,0.326171875,0.920166015625,0.2451171875,-1.9531248807907104,-0.3051757514476776,0.6713866591453552,66.66667175292969,76320.0,1.0
21456.6350095,-201792.359375,16587.9453125,-233181.90625,-242900.53125,-237733.796875,-242922.890625,-223977.09375,-330876.8125,0.326171875,0.91796875,0.2451171875,-1.9226073026657104,-0.1831054538488388,0.7629393935203552,66.66667175292969,76321.0,1.0
21456.6380983,-194762.03125,34356.77734375,-231926.890625,-243074.875,-236296.484375,-242126.53125,-224527.84375,-331047.40625,0.323974609375,0.917724609375,0.2490234375,-1.9531248807907104,-0.2136230319738388,0.6408690810203552,66.66667175292969,76322.0,1.0
21456.6381045,-198709.078125,22704.9921875,-233423.65625,-242980.8125,-237312.859375,-242263.5,-224480.28125,-331345.59375,0.324951171875,0.920654296875,0.24951171875,-1.9226073026657104,-0.2441406100988388,0.5798339247703552,66.66667175292969,76323.0,1.0
21456.6400259,-206729.421875,1000.2853393554688,-234972.359375,-242789.125,-238995.859375,-243143.265625,-223909.765625,-331222.75,0.32568359375,0.92041015625,0.250244140625,-1.9531248807907104,-0.1525878757238388,0.6408690810203552,66.66667175292969,76324.0,1.0
21456.6537591,-203459.09375,11814.775390625,-233614.546875,-242871.921875,-238121.375,-243083.375,-223908.875,-330932.0625,0.32666015625,0.9208984375,0.249267578125,-1.9531248807907104,-0.2136230319738388,0.5493163466453552,66.66667175292969,76325.0,1.0
21456.6562656,-195479.25,33072.1796875,-231983.3125,-243068.171875,-236434.34375,-242258.046875,-224464.359375,-331023.1875,0.326904296875,0.919677734375,0.246337890625,-1.9531248807907104,-0.2136230319738388,0.5798339247703552,66.66667175292969,76326.0,1.0
21456.6587575,-197237.875,26778.10546875,-233026.953125,-243032.765625,-236978.65625,-242164.890625,-224560.828125,-331342.375,0.325927734375,0.91845703125,0.24365234375,-1.8920897245407104,-0.1220703050494194,0.6713866591453552,66.66667175292969,76327.0,1.0
21456.6612572,-205978.390625,3010.958984375,-234918.28125,-242823.375,-238864.515625,-243039.65625,-224003.5625,-331303.28125,0.324951171875,0.91845703125,0.246826171875,-1.9531248807907104,-0.0610351525247097,0.7324218153953552,66.66667175292969,76328.0,1.0
21456.6636297,-204740.015625,8030.177734375,-233980.84375,-242856.09375,-238422.5,-243186.71875,-223863.453125,-330993.59375,0.324462890625,0.918701171875,0.2490234375,-1.8615721464157104,-0.0915527269244194,0.7324218153953552,66.66667175292969,76329.0,1.0
21456.6675466,-196319.9375,31112.646484375,-232091.859375,-243062.0,-236598.6875,-242382.234375,-224390.875,-331004.75,0.32470703125,0.919189453125,0.247802734375,-1.9226073026657104,-0.2441406100988388,0.7324218153953552,66.66667175292969,76330.0,1.0
21456.6730987,-195998.515625,30163.322265625,-232672.546875,-243076.75,-236694.4375,-242090.59375,-224621.8125,-331329.9375,0.324951171875,0.918701171875,0.24658203125,-1.9226073026657104,-0.1831054538488388,0.7019042372703552,66.66667175292969,76331.0,1.0
21456.673107,-204883.609375,5977.125,-234779.78125,-242866.109375,-238661.203125,-242911.078125,-224117.828125,-331383.03125,0.3251953125,0.919677734375,0.248046875,-2.014159917831421,-0.1831054538488388,0.6103515028953552,66.66667175292969,76332.0,1.0
21456.6750196,-205872.359375,4612.595703125,-234343.390625,-242846.703125,-238703.328125,-243271.484375,-223840.75,-331071.5625,0.325927734375,0.920166015625,0.24609375,-1.9531248807907104,-0.1220703050494194,0.6713866591453552,66.66667175292969,76333.0,1.0
21456.6887679,-197547.859375,28145.67578125,-232308.578125,-243048.953125,-236856.34375,-242542.015625,-224305.40625,-331000.84375,0.32666015625,0.9208984375,0.250244140625,-1.9226073026657104,-0.1220703050494194,0.6713866591453552,66.66667175292969,76334.0,1.0
21456.6918492,-195169.71875,32575.34375,-232389.3125,-243111.53125,-236499.34375,-242070.921875,-224656.234375,-331310.28125,0.326416015625,0.91943359375,0.2470703125,-1.9226073026657104,-0.2136230319738388,0.6103515028953552,66.66667175292969,76335.0,1.0
21456.691858,-203499.859375,9778.53125,-234543.03125,-242912.875,-238388.609375,-242768.390625,-224240.046875,-331446.34375,0.325927734375,0.92041015625,0.247314453125,-1.9531248807907104,-0.2441406100988388,0.6103515028953552,66.66667175292969,76336.0,1.0
21456.6937614,-206651.71875,2145.767578125,-234638.34375,-242839.28125,-238911.546875,-243314.671875,-223842.625,-331153.1875,0.32568359375,0.919677734375,0.250244140625,-1.9531248807907104,-0.3051757514476776,0.6103515028953552,66.66667175292969,76337.0,1.0
21456.6962732,-198965.9375,24485.263671875,-232591.734375,-243023.46875,-237159.34375,-242703.921875,-224212.328125,-331006.03125,0.326171875,0.91845703125,0.247314453125,-1.8615721464157104,-0.2136230319738388,0.6713866591453552,66.66667175292969,76338.0,1.0
21456.712512,-194667.96875,34107.421875,-232168.109375,-243134.859375,-236368.8125,-242080.765625,-224663.03125,-331283.8125,0.32568359375,0.9189453125,0.247314453125,-1.9226073026657104,-0.2136230319738388,0.7019042372703552,66.66667175292969,76339.0,1.0
21456.7155911,-201867.90625,14282.765625,-234217.5,-242965.4375,-238047.515625,-242607.1875,-224361.375,-331492.3125,0.32568359375,0.919677734375,0.245361328125,-1.9226073026657104,-0.2136230319738388,0.7019042372703552,66.66667175292969,76340.0,1.0
21456.7155995,-207070.765625,714.8982543945312,-234864.625,-242845.28125,-239043.15625,-243317.171875,-223871.59375,-331241.875,0.325439453125,0.919921875,0.247314453125,-1.9531248807907104,-0.1220703050494194,0.7019042372703552,66.66667175292969,76341.0,1.0
21456.7175064,-200552.109375,20240.04296875,-232945.328125,-243001.65625,-237508.84375,-242874.78125,-224125.0625,-331031.125,0.3251953125,0.9208984375,0.245849609375,-2.014159917831421,-0.1220703050494194,0.6103515028953552,66.66667175292969,76342.0,1.0
21456.7200177,-194601.53125,34620.796875,-232042.59375,-243150.0625,-236333.859375,-242137.984375,-224643.890625,-331255.5625,0.3251953125,0.921875,0.247802734375,-1.9836424589157104,-0.1525878757238388,0.7019042372703552,66.66667175292969,76343.0,1.0
21456.7225278,-200144.59375,18989.775390625,-233836.0,-243019.078125,-237684.078125,-242457.78125,-224481.171875,-331523.78125,0.326904296875,0.921630859375,0.2470703125,-1.8615721464157104,-0.2136230319738388,0.7324218153953552,66.66667175292969,76344.0,1.0
21456.7368413,-207094.734375,359.23724365234375,-235009.921875,-242854.484375,-239096.359375,-243284.265625,-223929.703125,-331335.65625,0.32666015625,0.92041015625,0.24755859375,-1.8615721464157104,-0.2441406100988388,0.7629393935203552,66.66667175292969,76345.0,1.0
21456.7368478,-202217.3125,15614.482421875,-233352.84375,-242975.28125,-237888.90625,-243044.921875,-224048.0,-331074.59375,0.3251953125,0.919189453125,0.247802734375,-1.8920897245407104,-0.2136230319738388,0.6408690810203552,66.66667175292969,76346.0,1.0
21456.7387664,-194980.171875,34163.125,-232022.203125,-243155.34375,-236397.96875,-242239.8125,-224602.3125,-331230.96875,0.325927734375,0.9189453125,0.249755859375,-1.9836424589157104,-0.3051757514476776,0.7324218153953552,66.66667175292969,76347.0,1.0
21456.7418552,-198517.5625,23482.20703125,-233435.8125,-243075.046875,-237321.984375,-242330.109375,-224578.53125,-331532.34375,0.32470703125,0.9189453125,0.247314453125,-1.9226073026657104,-0.2136230319738388,0.7629393935203552,66.66667175292969,76348.0,1.0
21456.741863,-206672.015625,1400.2921142578125,-235043.265625,-242879.078125,-239039.3125,-243205.953125,-224005.96875,-331420.59375,0.32568359375,0.919677734375,0.249267578125,-2.044677495956421,-0.2136230319738388,0.7019042372703552,66.66667175292969,76349.0,1.0
21456.7437737,-203695.296875,11343.9580078125,-233745.34375,-242954.0,-238228.484375,-243176.171875,-223983.890625,-331127.15625,0.325439453125,0.919677734375,0.24658203125,-1.9836424589157104,-0.1525878757238388,0.6713866591453552,66.66667175292969,76350.0,1.0
21456.750007,-195601.46875,32880.7578125,-232065.125,-243153.546875,-236511.78125,-242350.234375,-224538.65625,-331206.28125,0.3271484375,0.9189453125,0.246826171875,-1.9531248807907104,-0.1525878757238388,0.7019042372703552,66.66667175292969,76351.0,1.0
21456.7593443,-197048.15625,27482.990234375,-233042.78125,-243125.84375,-236991.796875,-242228.28125,-224659.359375,-331530.125,0.32568359375,0.918701171875,0.244140625,-1.9226073026657104,-0.2136230319738388,0.6713866591453552,66.66667175292969,76352.0,1.0
21456.7593521,-205881.484375,3494.471923828125,-234986.765625,-242915.375,-238907.4375,-243102.140625,-224108.875,-331508.5625,0.325927734375,0.91943359375,0.24755859375,-1.9836424589157104,-0.1525878757238388,0.6408690810203552,66.66667175292969,76353.0,1.0
21456.7618555,-205043.203125,7364.54248046875,-234134.265625,-242937.453125,-238550.4375,-243288.640625,-223941.328125,-331195.375,0.326171875,0.921142578125,0.244384765625,-1.9836424589157104,-0.2441406100988388,0.6713866591453552,66.66667175292969,76354.0,1.0
21456.7618642,-196599.875,30638.07421875,-232208.078125,-243142.46875,-236713.125,-242493.546875,-224459.0,-331190.71875,0.32568359375,0.9208984375,0.245849609375,-2.044677495956421,-0.2136230319738388,0.7019042372703552,66.66667175292969,76355.0,1.0
21456.7699871,-195879.25,30704.4140625,-232695.171875,-243165.4375,-236724.75,-242167.578125,-224716.3125,-331514.5625,0.325927734375,0.91943359375,0.2470703125,-1.9226073026657104,-0.1831054538488388,0.6713866591453552,66.66667175292969,76356.0,1.0
21456.7793418,-204712.21875,6609.94775390625,-234827.625,-242952.921875,-238693.125,-242971.15625,-224229.671875,-331586.4375,0.324951171875,0.919189453125,0.24853515625,-1.9531248807907104,-0.2441406100988388,0.6713866591453552,66.66667175292969,76357.0,1.0
21456.7793484,-206137.0,4002.840087890625,-234493.234375,-242925.65625,-238828.84375,-243372.6875,-223926.9375,-331277.09375,0.32421875,0.91943359375,0.24609375,-1.9226073026657104,-0.2441406100988388,0.6408690810203552,66.66667175292969,76358.0,1.0
21456.7812666,-197879.5625,27517.591796875,-232442.234375,-243124.3125,-236984.5625,-242657.796875,-224373.265625,-331189.03125,0.324462890625,0.91796875,0.246337890625,-1.8920897245407104,-0.2746581733226776,0.6103515028953552,66.66667175292969,76359.0,1.0
21456.7837733,-195110.265625,32965.0703125,-232426.328125,-243201.203125,-236540.203125,-242154.875,-224747.25,-331496.21875,0.326171875,0.917724609375,0.24755859375,-1.8920897245407104,-0.1831054538488388,0.6713866591453552,66.66667175292969,76360.0,1.0
21456.7875064,-203275.453125,10620.119140625,-234573.515625,-243006.75,-238399.609375,-242822.125,-224348.5,-331645.53125,0.325439453125,0.92138671875,0.247802734375,-1.9226073026657104,-0.2441406100988388,0.7019042372703552,66.66667175292969,76361.0,1.0
21456.7937656,-206838.046875,1811.6536865234375,-234774.15625,-242925.65625,-239016.78125,-243403.796875,-223932.21875,-331358.5625,0.32470703125,0.920654296875,0.247314453125,-1.9531248807907104,-0.2136230319738388,0.6713866591453552,66.66667175292969,76362.0,1.0
21456.8000238,-199340.640625,23735.318359375,-232743.890625,-243108.484375,-237299.90625,-242825.96875,-224284.921875,-331201.625,0.32470703125,0.920166015625,0.245361328125,-2.014159917831421,-0.1831054538488388,0.6713866591453552,66.66667175292969,76363.0,1.0
21456.8043619,-194717.328125,34275.0625,-232227.84375,-243224.546875,-236432.828125,-242177.3125,-224747.78125,-331468.78125,0.324951171875,0.91748046875,0.25,-1.9836424589157104,-0.1220703050494194,0.6713866591453552,66.66667175292969,76364.0,1.0
21456.8043697,-201644.390625,15125.7841796875,-234236.90625,-243059.765625,-238057.0,-242666.203125,-224467.84375,-331687.03125,0.322998046875,0.91650390625,0.250244140625,-1.9226073026657104,-0.1525878757238388,0.5493163466453552,66.66667175292969,76365.0,1.0
21456.8200071,-207181.453125,586.3309936523438,-234981.125,-242931.640625,-239132.03125,-243400.859375,-223964.9375,-331446.625,0.324462890625,0.918701171875,0.2509765625,-2.014159917831421,-0.1220703050494194,0.5493163466453552,66.66667175292969,76366.0,1.0
21456.8230966,-200924.84375,19445.392578125,-233100.8125,-243083.1875,-237650.203125,-242993.515625,-224196.953125,-331227.375,0.32568359375,0.91748046875,0.24951171875,-1.9226073026657104,-0.1525878757238388,0.6103515028953552,66.66667175292969,76367.0,1.0
21456.8231047,-194731.0,34615.07421875,-232122.15625,-243239.65625,-236418.609375,-242244.546875,-224726.953125,-331442.5,0.32470703125,0.9189453125,0.248046875,-2.044677495956421,-0.1525878757238388,0.7019042372703552,66.66667175292969,76368.0,1.0
21456.8275019,-199944.859375,19804.630859375,-233854.875,-243117.4375,-237697.765625,-242525.296875,-224586.859375,-331715.90625,0.325439453125,0.919189453125,0.2490234375,-1.9836424589157104,-0.1525878757238388,0.7324218153953552,66.66667175292969,76369.0,1.0
21456.830015,-207119.671875,508.36810302734375,-235106.203125,-242946.125,-239165.828125,-243361.515625,-224028.6875,-331540.21875,0.325439453125,0.92138671875,0.246826171875,-1.9836424589157104,-0.2136230319738388,0.7324218153953552,66.66667175292969,76370.0,1.0
21456.8325301,-202551.078125,14880.5400390625,-233505.734375,-243057.890625,-238022.125,-243155.609375,-224122.203125,-331273.34375,0.32568359375,0.919921875,0.2451171875,-1.9531248807907104,-0.1831054538488388,0.6713866591453552,66.66667175292969,76371.0,1.0
21456.8350157,-195120.8125,34017.2109375,-232103.828125,-243240.28125,-236481.109375,-242340.21875,-224677.15625,-331413.96875,0.32568359375,0.91845703125,0.244140625,-1.9531248807907104,-0.1831054538488388,0.6713866591453552,66.66667175292969,76372.0,1.0
21456.8418484,-198311.484375,24256.47265625,-233449.3125,-243168.578125,-237332.53125,-242394.125,-224679.203125,-331721.09375,0.32421875,0.91796875,0.245849609375,-1.9226073026657104,-0.2441406100988388,0.7324218153953552,66.66667175292969,76373.0,1.0
21456.8418566,-206642.0625,1686.3050537109375,-235130.078125,-242971.515625,-239098.953125,-243277.828125,-224109.6875,-331627.3125,0.325927734375,0.919189453125,0.247314453125,-1.9836424589157104,-0.1831054538488388,0.7934569716453552,66.66667175292969,76374.0,1.0
21456.8437663,-204041.65625,10569.0673828125,-233905.828125,-243036.15625,-238365.90625,-243286.140625,-224060.328125,-331327.78125,0.324951171875,0.9189453125,0.2470703125,-1.8615721464157104,-0.1831054538488388,0.7019042372703552,66.66667175292969,76375.0,1.0
21456.8525089,-195843.578125,32539.134765625,-232171.515625,-243236.515625,-236617.71875,-242461.09375,-224609.46875,-331390.5625,0.322998046875,0.919921875,0.250244140625,-1.9226073026657104,-0.2441406100988388,0.7324218153953552,66.66667175292969,76376.0,1.0
21456.8593431,-196895.453125,28124.576171875,-233061.46875,-243216.140625,-237012.28125,-242299.53125,-224754.21875,-331714.75,0.325439453125,0.919921875,0.248046875,-1.9531248807907104,-0.2746581733226776,0.7019042372703552,66.66667175292969,76377.0,1.0
21456.8593504,-205778.75,3982.812744140625,-235049.609375,-243003.96875,-238946.859375,-243163.921875,-224211.15625,-331709.1875,0.324462890625,0.9189453125,0.247802734375,-1.8615721464157104,-0.1831054538488388,0.7934569716453552,66.66667175292969,76378.0,1.0
21456.8680951,-205343.703125,6700.06982421875,-234286.265625,-243017.46875,-238677.484375,-243390.65625,-224019.390625,-331395.03125,0.323974609375,0.91796875,0.248046875,-1.8615721464157104,-0.2746581733226776,0.7019042372703552,66.66667175292969,76379.0,1.0
21456.8681033,-196892.5,30131.583984375,-232328.515625,-243223.734375,-236831.578125,-242607.90625,-224528.109375,-331376.15625,0.3251953125,0.917724609375,0.248291015625,-1.9226073026657104,-0.2746581733226776,0.6713866591453552,66.66667175292969,76380.0,1.0
21456.8706058,-195792.703125,31184.08203125,-232726.46875,-243257.171875,-236760.859375,-242249.203125,-224809.390625,-331700.25,0.325927734375,0.918212890625,0.2451171875,-1.9531248807907104,-0.1525878757238388,0.6408690810203552,66.66667175292969,76381.0,1.0
21456.8706138,-204554.765625,7269.77099609375,-234874.28125,-243045.90625,-238721.5625,-243032.671875,-224336.78125,-331787.625,0.324951171875,0.918701171875,0.248046875,-1.9226073026657104,-0.1831054538488388,0.7324218153953552,66.66667175292969,76382.0,1.0
21456.8800177,-206378.765625,3502.339599609375,-234636.015625,-243007.90625,-238946.0625,-243469.78125,-224010.890625,-331479.6875,0.32470703125,0.919677734375,0.24755859375,-1.9226073026657104,-0.1525878757238388,0.7324218153953552,66.66667175292969,76383.0,1.0
21456.8893465,-198216.984375,26881.103515625,-232579.921875,-243206.75,-237116.609375,-242777.59375,-224444.96875,-331380.625,0.323486328125,0.919677734375,0.250732421875,-1.9531248807907104,-0.1831054538488388,0.7019042372703552,66.66667175292969,76384.0,1.0
21456.8893551,-195094.96875,33273.43359375,-232471.65625,-243289.90625,-236590.90625,-242244.109375,-224835.046875,-331680.9375,0.3232421875,0.919677734375,0.247314453125,-1.9531248807907104,-0.2441406100988388,0.7019042372703552,66.66667175292969,76385.0,1.0
21456.8955905,-203074.375,11389.734375,-234604.8125,-243099.90625,-238415.96875,-242880.953125,-224455.6875,-331843.125,0.32470703125,0.918701171875,0.24853515625,-2.014159917831421,-0.2746581733226776,0.7324218153953552,66.66667175292969,76386.0,1.0
21456.895599,-207001.921875,1519.114013671875,-234900.84375,-243007.90625,-239115.671875,-243490.703125,-224019.921875,-331561.21875,0.324462890625,0.918701171875,0.250244140625,-1.9836424589157104,-0.2441406100988388,0.6713866591453552,66.66667175292969,76387.0,1.0
21456.9018432,-199688.4375,23015.94921875,-232887.484375,-243185.375,-237432.21875,-242939.15625,-224352.421875,-331391.53125,0.3251953125,0.919189453125,0.250732421875,-1.9836424589157104,-0.2441406100988388,0.6408690810203552,66.66667175292969,76388.0,1.0
21456.9018516,-194769.0,34416.32421875,-232289.625,-243311.796875,-236499.078125,-242272.359375,-224832.1875,-331653.0625,0.32421875,0.920654296875,0.248779296875,-2.044677495956421,-0.2136230319738388,0.5798339247703552,66.66667175292969,76389.0,1.0
21456.9105967,-201424.625,15957.7158203125,-234258.625,-243154.265625,-238068.984375,-242726.015625,-224575.59375,-331882.5625,0.32470703125,0.91845703125,0.246337890625,-2.044677495956421,-0.1831054538488388,0.6408690810203552,66.66667175292969,76390.0,1.0
21456.9106047,-207286.59375,470.5489501953125,-235096.203125,-243015.953125,-239219.015625,-243481.5,-224058.09375,-331650.1875,0.325439453125,0.918212890625,0.2490234375,-1.9836424589157104,-0.1525878757238388,0.5187987685203552,66.66667175292969,76391.0,1.0
21456.9143448,-201308.5,18608.0078125,-233258.796875,-243163.203125,-237793.609375,-243111.359375,-224268.296875,-331423.0,0.3232421875,0.9189453125,0.245361328125,-1.9531248807907104,-0.1525878757238388,0.6408690810203552,66.66667175292969,76392.0,1.0
21456.9143537,-194860.90625,34571.0859375,-232198.0625,-243324.328125,-236499.53125,-242346.390625,-224804.640625,-331624.4375,0.325439453125,0.91845703125,0.247802734375,-1.8615721464157104,-0.2136230319738388,0.6103515028953552,66.66667175292969,76393.0,1.0
21456.9325086,-199749.40625,20570.9375,-233872.21875,-243209.875,-237710.359375,-242588.859375,-224687.4375,-331905.0,0.325439453125,0.91845703125,0.247314453125,-1.9531248807907104,-0.2136230319738388,0.6408690810203552,66.66667175292969,76394.0,1.0
21456.9355963,-207143.8125,636.6671142578125,-235200.0,-243034.109375,-239233.5,-243435.546875,-224125.515625,-331742.71875,0.3251953125,0.919189453125,0.24658203125,-1.9531248807907104,-0.0915527269244194,0.6408690810203552,66.66667175292969,76395.0,1.0
21456.9356047,-202889.390625,14155.62890625,-233658.078125,-243140.40625,-238156.234375,-243266.65625,-224197.125,-331470.65625,0.323974609375,0.9189453125,0.250244140625,-2.014159917831421,-0.2136230319738388,0.7019042372703552,66.66667175292969,76396.0,1.0
21456.9381108,-195294.078125,33850.37890625,-232195.203125,-243328.25,-236574.8125,-242447.859375,-224755.734375,-331600.75,0.32568359375,0.919677734375,0.247314453125,-1.9836424589157104,-0.3051757514476776,0.6103515028953552,66.66667175292969,76397.0,1.0
21456.9381189,-198123.1875,25003.376953125,-233467.109375,-243265.484375,-237350.40625,-242464.3125,-224783.09375,-331912.78125,0.325927734375,0.91845703125,0.248779296875,-1.9226073026657104,-0.2136230319738388,0.7324218153953552,66.66667175292969,76398.0,1.0
21456.9400166,-206600.671875,2006.2032470703125,-235211.359375,-243062.625,-239155.8125,-243348.1875,-224213.671875,-331832.40625,0.3271484375,0.91943359375,0.2490234375,-1.8920897245407104,-0.1831054538488388,0.6408690810203552,66.66667175292969,76399.0,1.0
21456.9437601,-204378.015625,9822.51953125,-234062.921875,-243116.984375,-238501.890625,-243395.484375,-224137.3125,-331527.53125,0.326416015625,0.919677734375,0.248046875,-1.8920897245407104,-0.2136230319738388,0.6408690810203552,66.66667175292969,76400.0,1.0
21456.950005,-196096.78125,32171.224609375,-232281.21875,-243320.296875,-236728.859375,-242575.171875,-224683.5,-331577.15625,0.326416015625,0.9208984375,0.24609375,-1.9226073026657104,-0.1525878757238388,0.6713866591453552,66.66667175292969,76401.0,1.0
21456.9587551,-196762.140625,28728.4296875,-233085.609375,-243310.46875,-237039.90625,-242377.046875,-224853.734375,-331902.9375,0.32470703125,0.920654296875,0.247802734375,-1.8920897245407104,-0.2136230319738388,0.5798339247703552,66.66667175292969,76402.0,1.0
21456.9687071,-205670.5625,4494.66796875,-235111.9375,-243095.625,-238988.0,-243230.171875,-224318.28125,-331911.96875,0.3251953125,0.920654296875,0.246826171875,-1.9226073026657104,-0.2136230319738388,0.7019042372703552,66.66667175292969,76403.0,1.0
21456.9687157,-205660.28125,5995.98974609375,-234444.234375,-243099.109375,-238812.21875,-243497.6875,-224101.1875,-331598.78125,0.326171875,0.92041015625,0.246337890625,-1.9836424589157104,-0.1220703050494194,0.7324218153953552,66.66667175292969,76404.0,1.0
21456.9687198,-197227.15625,29552.583984375,-232459.140625,-243305.546875,-236961.84375,-242730.296875,-224599.1875,-331564.8125,0.32666015625,0.919189453125,0.24658203125,-1.9531248807907104,-0.3051757514476776,0.7324218153953552,66.66667175292969,76405.0,1.0
21456.9712621,-195758.109375,31580.69140625,-232766.515625,-243348.546875,-236807.09375,-242338.609375,-224899.59375,-331885.0625,0.324951171875,0.9189453125,0.247314453125,-1.8615721464157104,-0.2136230319738388,0.7629393935203552,66.66667175292969,76406.0,1.0
21456.9737577,-204406.796875,7940.591796875,-234915.859375,-243141.03125,-238745.15625,-243095.703125,-224437.71875,-331982.6875,0.32470703125,0.920166015625,0.243896484375,-1.9531248807907104,-0.2136230319738388,0.6408690810203552,66.66667175292969,76407.0,1.0
21456.9762708,-206578.59375,3155.530029296875,-234765.84375,-243092.9375,-239049.328125,-243560.171875,-224094.21875,-331679.34375,0.324951171875,0.9208984375,0.247314453125,-1.9226073026657104,-0.2441406100988388,0.6408690810203552,66.66667175292969,76408.0,1.0
21456.9787517,-198538.84375,26242.021484375,-232710.015625,-243287.9375,-237239.546875,-242890.078125,-224512.015625,-331567.5,0.32470703125,0.92138671875,0.244140625,-1.8310545682907104,-0.2136230319738388,0.4882812201976776,66.66667175292969,76409.0,1.0
21456.9850354,-195082.09375,33545.9453125,-232514.5625,-243378.953125,-236639.890625,-242331.359375,-224920.421875,-331862.34375,0.32470703125,0.9189453125,0.24853515625,-1.8920897245407104,-0.1525878757238388,0.5493163466453552,66.66667175292969,76410.0,1.0
21456.9918726,-202864.359375,12201.638671875,-234630.203125,-243193.609375,-238429.640625,-242938.703125,-224561.375,-332038.21875,0.3251953125,0.920166015625,0.25244140625,-1.9226073026657104,-0.0610351525247097,0.6103515028953552,66.66667175292969,76411.0,1.0
21456.9918812,-207168.21875,1239.7171630859375,-235028.78125,-243094.8125,-239216.96875,-243580.46875,-224110.578125,-331766.15625,0.326416015625,0.92041015625,0.25,-1.9226073026657104,-0.0915527269244194,0.6713866591453552,66.66667175292969,76412.0,1.0
21457.0218484,-200060.375,22237.39453125,-233037.0625,-243266.5625,-237571.875,-243059.3125,-224422.171875,-331585.09375,0.326171875,0.920654296875,0.24951171875,-1.9836424589157104,-0.1831054538488388,0.6713866591453552,66.66667175292969,76413.0,1.0
21457.0218564,-194839.8125,34495.359375,-232351.40625,-243398.96875,-236568.1875,-242370.609375,-224913.640625,-331836.0625,0.3251953125,0.9208984375,0.24658203125,-1.9226073026657104,-0.1525878757238388,0.7934569716453552,66.66667175292969,76414.0,1.0
21457.024941,-201197.984375,16808.6015625,-234275.171875,-243249.046875,-238079.078125,-242787.515625,-224682.515625,-332076.84375,0.325439453125,0.9189453125,0.24609375,-1.9226073026657104,-0.1831054538488388,0.6713866591453552,66.66667175292969,76415.0,1.0
21457.0249491,-207368.9375,424.05731201171875,-235205.09375,-243102.6875,-239302.4375,-243563.03125,-224153.9375,-331855.375,0.3251953125,0.919189453125,0.245849609375,-1.9531248807907104,-0.1525878757238388,0.5798339247703552,66.66667175292969,76416.0,1.0
21457.0249533,-201668.265625,17818.185546875,-233409.625,-243240.28125,-237930.046875,-243224.546875,-224337.40625,-331616.40625,0.32568359375,0.9189453125,0.2470703125,-1.9836424589157104,-0.1831054538488388,0.5798339247703552,66.66667175292969,76417.0,1.0
21457.0275136,-194988.3125,34500.45703125,-232272.546875,-243406.390625,-236579.546875,-242446.703125,-224880.015625,-331805.3125,0.327392578125,0.918212890625,0.248046875,-1.9836424589157104,-0.2441406100988388,0.7629393935203552,66.66667175292969,76418.0,1.0
21457.0300135,-199508.640625,21436.0390625,-233876.953125,-243300.453125,-237714.125,-242647.78125,-224789.625,-332092.59375,0.3271484375,0.91845703125,0.249755859375,-2.044677495956421,-0.2136230319738388,0.7019042372703552,66.66667175292969,76419.0,1.0
21457.0325285,-207143.375,807.3450317382812,-235289.3125,-243117.078125,-239297.515625,-243505.28125,-224222.515625,-331944.4375,0.32568359375,0.919189453125,0.2490234375,-1.9836424589157104,-0.1831054538488388,0.7019042372703552,66.66667175292969,76420.0,1.0
21457.0350204,-203245.234375,13328.9716796875,-233814.453125,-243214.34375,-238293.296875,-243375.375,-224267.765625,-331666.03125,0.325927734375,0.919677734375,0.24755859375,-1.9531248807907104,-0.1831054538488388,0.7324218153953552,66.66667175292969,76421.0,1.0
21457.0375073,-195492.5625,33596.55078125,-232286.21875,-243405.953125,-236669.40625,-242551.84375,-224825.84375,-331781.0,0.326171875,0.92041015625,0.245849609375,-1.8920897245407104,-0.1831054538488388,0.7934569716453552,66.66667175292969,76422.0,1.0
21457.0400191,-197937.40625,25707.099609375,-233479.8125,-243355.4375,-237363.828125,-242530.5625,-224881.453125,-332098.5625,0.32568359375,0.920166015625,0.248046875,-1.9836424589157104,-0.1831054538488388,0.7629393935203552,66.66667175292969,76423.0,1.0
21457.042523,-206542.109375,2361.14892578125,-235286.71875,-243151.40625,-239206.5,-243416.046875,-224317.296875,-332035.8125,0.324951171875,0.9189453125,0.2490234375,-1.9836424589157104,-0.1525878757238388,0.7629393935203552,66.66667175292969,76424.0,1.0
21457.0456002,-204701.9375,9104.044921875,-234220.09375,-243199.234375,-238635.90625,-243504.03125,-224217.328125,-331730.125,0.326171875,0.918212890625,0.244873046875,-1.9531248807907104,-0.2441406100988388,0.7324218153953552,66.66667175292969,76425.0,1.0
21457.0456087,-196358.125,31769.4296875,-232395.65625,-243404.875,-236841.953125,-242690.15625,-224757.4375,-331765.875,0.326171875,0.916748046875,0.24462890625,-2.044677495956421,-0.2136230319738388,0.6713866591453552,66.66667175292969,76426.0,1.0
21457.0537572,-196636.078125,29301.349609375,-233111.984375,-243403.796875,-237068.328125,-242455.109375,-224950.734375,-332090.6875,0.32568359375,0.9169921875,0.24658203125,-2.014159917831421,-0.2136230319738388,0.7019042372703552,66.66667175292969,76427.0,1.0
21457.0580974,-205551.21875,5047.82861328125,-235172.640625,-243190.921875,-239028.5,-243298.03125,-224428.421875,-332118.25,0.3251953125,0.919921875,0.246826171875,-2.014159917831421,-0.1525878757238388,0.5798339247703552,66.66667175292969,76428.0,1.0
21457.058104,-205930.390625,5426.3779296875,-234593.375,-243184.578125,-238936.5,-243601.390625,-224186.9375,-331804.25,0.326904296875,0.919921875,0.249267578125,-1.9531248807907104,-0.1831054538488388,0.6408690810203552,66.66667175292969,76429.0,1.0
21457.0637557,-197527.5625,29008.2734375,-232585.015625,-243388.328125,-237084.25,-242846.53125,-224671.34375,-331754.53125,0.326416015625,0.921142578125,0.24658203125,-1.9531248807907104,-0.1831054538488388,0.6713866591453552,66.66667175292969,76430.0,1.0
21457.0675099,-195703.03125,31971.66796875,-232804.0625,-243438.84375,-236850.890625,-242423.546875,-224992.140625,-332070.125,0.325439453125,0.919921875,0.25,-2.044677495956421,-0.2136230319738388,0.7019042372703552,66.66667175292969,76431.0,1.0
21457.0768448,-204238.453125,8628.8466796875,-234957.890625,-243234.5625,-238773.140625,-243159.1875,-224548.5,-332183.25,0.324951171875,0.920654296875,0.248046875,-2.075195074081421,-0.2136230319738388,0.6713866591453552,66.66667175292969,76432.0,1.0
21457.0768533,-206800.9375,2701.342529296875,-234905.3125,-243175.546875,-239163.859375,-243656.375,-224182.28125,-331883.71875,0.32421875,0.919677734375,0.245849609375,-1.9836424589157104,-0.1525878757238388,0.6103515028953552,66.66667175292969,76433.0,1.0
21457.0787568,-198896.296875,25532.578125,-232854.40625,-243369.46875,-237377.421875,-243011.84375,-224583.546875,-331760.4375,0.324951171875,0.920166015625,0.244384765625,-2.014159917831421,-0.2441406100988388,0.6713866591453552,66.66667175292969,76434.0,1.0
21457.0873703,-195098.1875,33775.8125,-232568.125,-243468.796875,-236700.15625,-242426.046875,-225009.296875,-332048.5,0.32470703125,0.920654296875,0.248291015625,-1.9226073026657104,-0.2136230319738388,0.7019042372703552,66.66667175292969,76435.0,1.0
21457.0943443,-202654.875,13011.0400390625,-234658.8125,-243288.734375,-238446.453125,-243000.9375,-224672.328125,-332237.34375,0.32568359375,0.9189453125,0.2509765625,-1.9836424589157104,-0.2746581733226776,0.7629393935203552,66.66667175292969,76436.0,1.0
21457.0943523,-207317.71875,1004.3980102539062,-235154.3125,-243180.203125,-239315.3125,-243669.15625,-224204.1875,-331971.78125,0.3251953125,0.91796875,0.247802734375,-1.9836424589157104,-0.2746581733226776,0.7019042372703552,66.66667175292969,76437.0,1.0
21457.0962481,-200434.71875,21453.115234375,-233190.671875,-243347.828125,-237713.046875,-243179.296875,-224494.671875,-331779.65625,0.325927734375,0.91943359375,0.24853515625,-2.014159917831421,-0.1831054538488388,0.7019042372703552,66.66667175292969,76438.0,1.0
21457.1000121,-194921.890625,34556.9609375,-232419.171875,-243486.234375,-236641.6875,-242470.21875,-224997.3125,-332019.90625,0.326416015625,0.918212890625,0.249267578125,-1.9531248807907104,-0.1525878757238388,0.7324218153953552,66.66667175292969,76439.0,1.0
21457.1093428,-200963.5625,17639.908203125,-234293.859375,-243342.46875,-238093.828125,-242851.359375,-224795.96875,-332273.09375,0.3271484375,0.919921875,0.24951171875,-1.9836424589157104,-0.2136230319738388,0.6103515028953552,66.66667175292969,76440.0,1.0
21457.1093514,-207485.4375,235.85562133789062,-235329.640625,-243187.171875,-239401.328125,-243652.53125,-224256.140625,-332066.03125,0.326171875,0.91943359375,0.249267578125,-1.8615721464157104,-0.2746581733226776,0.7629393935203552,66.66667175292969,76441.0,1.0
21457.1112549,-202158.578125,16715.619140625,-233596.484375,-243317.25,-238102.953125,-243359.015625,-224410.625,-331817.46875,0.32421875,0.920166015625,0.247802734375,-1.9836424589157104,-0.2136230319738388,0.7019042372703552,66.66667175292969,76442.0,1.0
21457.1200069,-195213.625,34326.6484375,-232368.484375,-243489.546875,-236683.703125,-242565.609375,-224957.09375,-331991.28125,0.323974609375,0.9208984375,0.249267578125,-1.9531248807907104,-0.1831054538488388,0.7019042372703552,66.66667175292969,76443.0,1.0
21457.1231028,-199305.234375,22228.275390625,-233891.609375,-243396.734375,-237725.296875,-242717.0625,-224894.765625,-332285.0625,0.32470703125,0.9208984375,0.249267578125,-1.8310545682907104,-0.1525878757238388,0.6713866591453552,66.66667175292969,76444.0,1.0
21457.1231112,-207160.0,992.0598754882812,-235385.78125,-243211.3125,-239365.921875,-243583.953125,-224326.765625,-332152.3125,0.32470703125,0.91796875,0.250244140625,-1.9226073026657104,-0.2136230319738388,0.6713866591453552,66.66667175292969,76445.0,1.0
21457.126261,-203617.515625,12512.5966796875,-233975.390625,-243296.15625,-238434.203125,-243489.90625,-224341.875,-331863.96875,0.324951171875,0.918701171875,0.25,-2.044677495956421,-0.2136230319738388,0.6713866591453552,66.66667175292969,76446.0,1.0
21457.1405982,-195715.546875,33328.77734375,-232384.75,-243490.53125,-236770.78125,-242663.875,-224898.4375,-331964.71875,0.327392578125,0.920654296875,0.2470703125,-2.044677495956421,-0.3356933295726776,0.6713866591453552,66.66667175292969,76447.0,1.0
21457.1406068,-197767.625,26412.07421875,-233495.90625,-243450.65625,-237382.6875,-242604.140625,-224981.578125,-332286.6875,0.326904296875,0.91943359375,0.247802734375,-2.044677495956421,-0.1831054538488388,0.6408690810203552,66.66667175292969,76448.0,1.0
21457.142507,-206469.953125,2786.010986328125,-235358.15625,-243243.140625,-239255.40625,-243485.34375,-224421.984375,-332239.84375,0.32568359375,0.919189453125,0.25,-2.044677495956421,-0.3051757514476776,0.5493163466453552,66.66667175292969,76449.0,1.0
21457.1450133,-205019.0625,8409.083984375,-234374.140625,-243280.15625,-238767.515625,-243611.859375,-224295.03125,-331930.65625,0.324951171875,0.919677734375,0.24755859375,-1.9836424589157104,-0.2441406100988388,0.6408690810203552,66.66667175292969,76450.0,1.0
21457.1487546,-196627.765625,31348.322265625,-232507.0625,-243484.1875,-236954.609375,-242803.171875,-224825.65625,-331949.4375,0.326171875,0.920654296875,0.247802734375,-1.9226073026657104,-0.2441406100988388,0.7019042372703552,66.66667175292969,76451.0,1.0
21457.1575088,-196501.890625,29880.08203125,-233131.03125,-243491.953125,-237096.5,-242531.8125,-225046.3125,-332275.15625,0.32568359375,0.92041015625,0.2470703125,-1.9226073026657104,-0.1831054538488388,0.6103515028953552,66.66667175292969,76452.0,1.0
21457.1605818,-205400.65625,5613.95361328125,-235224.9375,-243277.5625,-239064.796875,-243361.25,-224539.28125,-332321.71875,0.325439453125,0.919677734375,0.248291015625,-1.8310545682907104,-0.0915527269244194,0.6103515028953552,66.66667175292969,76453.0,1.0
21457.160588,-206186.625,4847.0205078125,-234739.90625,-243264.5,-239059.421875,-243703.671875,-224272.859375,-332008.8125,0.325439453125,0.919921875,0.249267578125,-1.9836424589157104,-0.2136230319738388,0.7019042372703552,66.66667175292969,76454.0,1.0
21457.1625102,-197821.703125,28472.546875,-232713.046875,-243468.796875,-237206.375,-242962.40625,-224744.5625,-331945.78125,0.32470703125,0.92041015625,0.24609375,-2.014159917831421,-0.1220703050494194,0.7019042372703552,66.66667175292969,76455.0,1.0
21457.1762549,-195616.3125,32414.58984375,-232838.046875,-243529.15625,-236885.9375,-242503.75,-225084.21875,-332257.28125,0.324462890625,0.919921875,0.24853515625,-2.014159917831421,-0.1831054538488388,0.5798339247703552,66.66667175292969,76456.0,1.0
21457.1793437,-204033.625,9415.806640625,-234996.59375,-243330.484375,-238789.515625,-243215.6875,-224658.015625,-332385.75,0.32568359375,0.920654296875,0.249267578125,-1.9836424589157104,-0.2136230319738388,0.6408690810203552,66.66667175292969,76457.0,1.0
21457.1793502,-207002.90625,2326.458984375,-235043.796875,-243262.453125,-239271.6875,-243748.109375,-224271.0625,-332089.4375,0.326171875,0.91943359375,0.246826171875,-2.014159917831421,-0.2136230319738388,0.6103515028953552,66.66667175292969,76458.0,1.0
21457.1812542,-199245.515625,24840.74609375,-232996.5625,-243450.46875,-237509.5625,-243128.15625,-224652.296875,-331951.5,0.324951171875,0.921630859375,0.24560546875,-1.9531248807907104,-0.2136230319738388,0.5798339247703552,66.66667175292969,76459.0,1.0
21457.1837696,-195118.765625,33992.35546875,-232619.796875,-243556.875,-236757.203125,-242517.59375,-225092.890625,-332231.53125,0.32470703125,0.921142578125,0.246337890625,-1.9836424589157104,-0.1831054538488388,0.7019042372703552,66.66667175292969,76460.0,1.0
21457.2018452,-202442.796875,13824.8232421875,-234682.0625,-243382.171875,-238458.34375,-243059.765625,-224777.46875,-332431.4375,0.323974609375,0.91845703125,0.24560546875,-2.044677495956421,-0.1525878757238388,0.7324218153953552,66.66667175292969,76461.0,1.0
21457.2018533,-207460.671875,790.5365600585938,-235276.984375,-243265.3125,-239410.796875,-243755.796875,-224294.765625,-332175.90625,0.323486328125,0.919189453125,0.247314453125,-1.9531248807907104,-0.1525878757238388,0.7629393935203552,66.66667175292969,76462.0,1.0
21457.2217748,-200825.875,20632.26953125,-233345.078125,-243426.78125,-237855.921875,-243299.375,-224562.53125,-331973.125,0.3251953125,0.91943359375,0.24609375,-1.9226073026657104,-0.1220703050494194,0.7019042372703552,66.66667175292969,76463.0,1.0
21457.221783,-195026.578125,34598.98046875,-232487.484375,-243571.171875,-236716.515625,-242572.046875,-225076.171875,-332202.375,0.325927734375,0.920654296875,0.244384765625,-1.8920897245407104,-0.1525878757238388,0.6408690810203552,66.66667175292969,76464.0,1.0
21457.2217871,-200727.96875,18506.171875,-234302.984375,-243433.84375,-238098.21875,-242910.015625,-224898.25,-332462.53125,0.32666015625,0.919677734375,0.245849609375,-1.8920897245407104,-0.3051757514476776,0.5798339247703552,66.66667175292969,76465.0,1.0
21457.2217908,-207522.453125,315.696044921875,-235427.0,-243273.265625,-239473.03125,-243728.265625,-224352.0625,-332269.34375,0.326171875,0.91845703125,0.249755859375,-1.8615721464157104,-0.1831054538488388,0.6408690810203552,66.66667175292969,76466.0,1.0
21457.2237699,-202448.609375,16098.263671875,-233735.953125,-243398.625,-238225.34375,-243465.140625,-224485.015625,-332013.28125,0.32470703125,0.91845703125,0.24755859375,-1.9531248807907104,-0.1831054538488388,0.6713866591453552,66.66667175292969,76467.0,1.0
21457.2274486,-195323.59375,34264.8671875,-232446.078125,-243576.0,-236762.296875,-242663.421875,-225036.484375,-332176.625,0.326904296875,0.91748046875,0.247314453125,-1.9531248807907104,-0.1525878757238388,0.6103515028953552,66.66667175292969,76468.0,1.0
21457.2274569,-199084.046875,23052.16015625,-233905.828125,-243492.9375,-237735.3125,-242780.015625,-224999.90625,-332477.5625,0.324462890625,0.91796875,0.248291015625,-1.9531248807907104,-0.1525878757238388,0.5798339247703552,66.66667175292969,76469.0,1.0
21457.227461,-207137.921875,1254.4693603515625,-235473.578125,-243300.625,-239426.625,-243653.421875,-224428.25,-332357.59375,0.32421875,0.919921875,0.246826171875,-1.8615721464157104,-0.2441406100988388,0.6103515028953552,66.66667175292969,76470.0,1.0
21457.2300134,-203959.765625,11765.064453125,-234135.421875,-243379.84375,-238572.875,-243601.921875,-224420.734375,-332066.46875,0.324462890625,0.920166015625,0.247314453125,-1.8615721464157104,-0.1831054538488388,0.5798339247703552,66.66667175292969,76471.0,1.0
21457.2325114,-195936.46875,33054.03125,-232487.75,-243576.453125,-236874.953125,-242775.625,-224975.234375,-332152.03125,0.32666015625,0.919921875,0.246337890625,-1.8615721464157104,-0.1831054538488388,0.6408690810203552,66.66667175292969,76472.0,1.0
21457.2412508,-197596.671875,27103.189453125,-233512.796875,-243543.640625,-237400.65625,-242674.234375,-225080.828125,-332473.90625,0.32568359375,0.919677734375,0.24755859375,-1.8615721464157104,-0.0915527269244194,0.6103515028953552,66.66667175292969,76473.0,1.0
21457.244349,-206383.953125,3218.6513671875,-235425.65625,-243331.65625,-239299.046875,-243548.828125,-224524.359375,-332441.28125,0.32470703125,0.918212890625,0.248046875,-1.9226073026657104,-0.0610351525247097,0.5187987685203552,66.66667175292969,76474.0,1.0
21457.2443701,-205328.3125,7720.1142578125,-234526.21875,-243359.90625,-238896.0,-243715.03125,-224372.453125,-332130.5,0.326171875,0.9208984375,0.248779296875,-1.9226073026657104,-0.1525878757238388,0.6713866591453552,66.66667175292969,76475.0,1.0
21457.2462695,-196900.1875,30893.95703125,-232620.34375,-243564.46875,-237066.28125,-242914.390625,-224894.6875,-332133.78125,0.328125,0.91943359375,0.246826171875,-1.8920897245407104,-0.3051757514476776,0.8239745497703552,66.66667175292969,76476.0,1.0
21457.2600201,-196389.328125,30412.232421875,-233158.03125,-243584.5,-237125.28125,-242608.625,-225140.453125,-332460.75,0.328125,0.91943359375,0.246826171875,-1.9531248807907104,-0.2136230319738388,0.7934569716453552,66.66667175292969,76477.0,1.0
21457.2674394,-205255.90625,6237.29931640625,-235276.796875,-243369.921875,-239094.65625,-243420.96875,-224644.15625,-332522.34375,0.32568359375,0.918701171875,0.245849609375,-2.014159917831421,-0.1525878757238388,0.7324218153953552,66.66667175292969,76478.0,1.0
21457.2674476,-206498.203125,4145.8017578125,-234896.109375,-243343.09375,-239189.25,-243805.0625,-224350.109375,-332208.625,0.32568359375,0.919189453125,0.24755859375,-1.9836424589157104,-0.1525878757238388,0.6408690810203552,66.66667175292969,76479.0,1.0
21457.2674516,-198240.671875,27707.58203125,-232860.03125,-243544.703125,-237351.9375,-243089.8125,-224806.96875,-332131.1875,0.32666015625,0.917724609375,0.249267578125,-2.044677495956421,-0.1831054538488388,0.7324218153953552,66.66667175292969,76480.0,1.0
21457.2705961,-195607.640625,32754.158203125,-232875.859375,-243615.78125,-236934.84375,-242595.75,-225169.25,-332436.875,0.325927734375,0.9189453125,0.24951171875,-2.014159917831421,-0.3051757514476776,0.6103515028953552,66.66667175292969,76481.0,1.0
21457.2706043,-203840.5,10176.1240234375,-235025.125,-243420.796875,-238805.6875,-243275.0625,-224762.171875,-332579.5,0.32568359375,0.917724609375,0.247314453125,-1.8615721464157104,-0.2746581733226776,0.6408690810203552,66.66667175292969,76482.0,1.0
21457.2725142,-207187.625,1990.9146728515625,-235171.390625,-243344.265625,-239374.40625,-243838.140625,-224356.265625,-332289.71875,0.326171875,0.919677734375,0.248291015625,-1.8615721464157104,-0.3051757514476776,0.6408690810203552,66.66667175292969,76483.0,1.0
21457.2868311,-199594.828125,24137.740234375,-233135.328125,-243528.4375,-237640.984375,-243244.484375,-224719.265625,-332139.59375,0.327392578125,0.920166015625,0.247802734375,-1.8615721464157104,-0.1525878757238388,0.6713866591453552,66.66667175292969,76484.0,1.0
21457.2868389,-195152.640625,34172.0625,-232673.0,-243643.140625,-236816.828125,-242610.9375,-225176.578125,-332413.5625,0.325927734375,0.918701171875,0.24755859375,-1.8615721464157104,-0.1525878757238388,0.6408690810203552,66.66667175292969,76485.0,1.0
21457.289341,-202218.125,14661.404296875,-234701.546875,-243474.96875,-238467.640625,-243118.0625,-224883.328125,-332625.8125,0.32421875,0.91845703125,0.24609375,-1.8615721464157104,-0.1220703050494194,0.7019042372703552,66.66667175292969,76486.0,1.0
21457.2893496,-207562.875,677.526123046875,-235389.8125,-243349.625,-239496.890625,-243836.71875,-224386.21875,-332378.59375,0.32568359375,0.91943359375,0.24853515625,-1.8615721464157104,-0.1831054538488388,0.6408690810203552,66.66667175292969,76487.0,1.0
21457.3037629,-201170.0,19888.671875,-233491.15625,-243504.828125,-237989.234375,-243411.484375,-224631.375,-332165.1875,0.327392578125,0.918701171875,0.2509765625,-2.014159917831421,-0.0915527269244194,0.7324218153953552,66.66667175292969,76488.0,1.0
21457.3068356,-195113.296875,34622.85546875,-232555.34375,-243657.71875,-236789.65625,-242669.859375,-225156.203125,-332386.28125,0.325439453125,0.91845703125,0.24755859375,-1.9836424589157104,-0.1220703050494194,0.7324218153953552,66.66667175292969,76489.0,1.0
21457.3068437,-200500.609375,19353.572265625,-234321.03125,-243531.203125,-238107.6875,-242972.328125,-225006.34375,-332659.15625,0.323486328125,0.91943359375,0.249755859375,-1.9226073026657104,-0.2136230319738388,0.5798339247703552,66.66667175292969,76490.0,1.0
21457.3087533,-207580.578125,337.690185546875,-235534.015625,-243361.25,-239551.609375,-243806.046875,-224450.0625,-332476.03125,0.32470703125,0.919189453125,0.249267578125,-1.9531248807907104,-0.2746581733226776,0.5798339247703552,66.66667175292969,76491.0,1.0
21457.3112458,-202888.140625,15097.978515625,-233910.03125,-243475.59375,-238382.078125,-243587.171875,-224553.5,-332210.59375,0.32470703125,0.91943359375,0.248046875,-1.9226073026657104,-0.2441406100988388,0.5798339247703552,66.66667175292969,76492.0,1.0
21457.3175048,-195543.984375,34042.24609375,-232539.609375,-243658.796875,-236863.859375,-242778.140625,-225109.078125,-332359.625,0.324462890625,0.92138671875,0.24853515625,-1.9226073026657104,-0.1525878757238388,0.6408690810203552,66.66667175292969,76493.0,1.0
21457.3237555,-198882.171875,23822.22265625,-233914.0625,-243585.484375,-237745.953125,-242848.40625,-225100.140625,-332664.5,0.326416015625,0.9208984375,0.25,-2.044677495956421,-0.1525878757238388,0.7324218153953552,66.66667175292969,76494.0,1.0
21457.3283944,-207111.453125,1517.77294921875,-235556.015625,-243389.234375,-239484.5625,-243725.75,-224529.359375,-332561.53125,0.326416015625,0.91943359375,0.249267578125,-1.9531248807907104,-0.1220703050494194,0.6713866591453552,66.66667175292969,76495.0,1.0
21457.3284017,-204304.4375,10988.8330078125,-234291.359375,-243458.4375,-238708.6875,-243711.90625,-224494.3125,-332264.96875,0.32568359375,0.920166015625,0.2470703125,-1.9226073026657104,-0.2136230319738388,0.7934569716453552,66.66667175292969,76496.0,1.0
21457.3368458,-196167.140625,32720.451171875,-232588.59375,-243658.703125,-236978.75,-242887.203125,-225046.40625,-332336.5625,0.326416015625,0.919189453125,0.248779296875,-1.8920897245407104,-0.2746581733226776,0.7019042372703552,66.66667175292969,76497.0,1.0
21457.3368545,-197428.140625,27776.9609375,-233527.1875,-243635.71875,-237418.90625,-242746.578125,-225178.546875,-332660.65625,0.325439453125,0.91845703125,0.245361328125,-2.014159917831421,-0.2441406100988388,0.7629393935203552,66.66667175292969,76498.0,1.0
21457.3412698,-206279.96875,3724.247802734375,-235491.203125,-243425.078125,-239342.40625,-243615.609375,-224632.09375,-332646.28125,0.32470703125,0.921630859375,0.246337890625,-1.9836424589157104,-0.2441406100988388,0.7324218153953552,66.66667175292969,76499.0,1.0
21457.343752,-205635.171875,7049.025390625,-234681.609375,-243443.046875,-239027.6875,-243821.25,-224453.375,-332333.34375,0.3251953125,0.921630859375,0.246337890625,-1.9226073026657104,-0.2136230319738388,0.6713866591453552,66.66667175292969,76500.0,1.0
21457.3525117,-197187.1875,30395.958984375,-232740.671875,-243647.703125,-237185.71875,-243031.328125,-224966.203125,-332321.90625,0.325927734375,0.920654296875,0.248779296875,-1.9531248807907104,-0.3356933295726776,0.7019042372703552,66.66667175292969,76501.0,1.0
21457.3555827,-196287.84375,30908.888671875,-233186.015625,-243676.21875,-237157.828125,-242689.53125,-225234.421875,-332646.46875,0.325439453125,0.918701171875,0.24755859375,-2.044677495956421,-0.2441406100988388,0.7019042372703552,66.66667175292969,76502.0,1.0
21457.3555912,-205096.3125,6896.13916015625,-235325.078125,-243463.171875,-239123.984375,-243483.90625,-224753.15625,-332724.40625,0.3251953125,0.919921875,0.247314453125,-2.014159917831421,-0.1525878757238388,0.6713866591453552,66.66667175292969,76503.0,1.0
21457.3662536,-206742.5625,3642.35107421875,-235041.390625,-243427.40625,-239309.5,-243905.203125,-224437.28125,-332414.4375,0.3251953125,0.920654296875,0.247314453125,-1.9531248807907104,-0.1220703050494194,0.6103515028953552,66.66667175292969,76504.0,1.0
21457.3693342,-198566.734375,27074.3125,-232994.234375,-243626.15625,-237480.859375,-243208.53125,-224877.78125,-332322.1875,0.325439453125,0.922119140625,0.24658203125,-1.9226073026657104,-0.0610351525247097,0.6103515028953552,66.66667175292969,76505.0,1.0
21457.3693428,-195583.234375,33070.2109375,-232921.640625,-243707.96875,-236986.53125,-242687.203125,-225260.53125,-332624.90625,0.32568359375,0.920166015625,0.247802734375,-2.044677495956421,-0.2136230319738388,0.6713866591453552,66.66667175292969,76506.0,1.0
21457.3712516,-203646.9375,10948.689453125,-235061.328125,-243517.53125,-238827.6875,-243338.625,-224873.21875,-332781.8125,0.3251953125,0.9189453125,0.248779296875,-2.014159917831421,-0.1220703050494194,0.7629393935203552,66.66667175292969,76507.0,1.0
21457.3805839,-207376.984375,1649.91650390625,-235306.125,-243430.796875,-239482.59375,-243932.734375,-224447.109375,-332496.6875,0.32568359375,0.91748046875,0.24755859375,-2.044677495956421,-0.0915527269244194,0.7934569716453552,66.66667175292969,76508.0,1.0
21457.3805915,-199968.015625,23376.6171875,-233284.8125,-243609.625,-237781.890625,-243366.4375,-224789.8125,-332333.25,0.326171875,0.92138671875,0.248779296875,-2.075195074081421,-0.2136230319738388,0.7019042372703552,66.66667175292969,76509.0,1.0
21457.3850179,-195208.703125,34312.96875,-232733.171875,-243732.109375,-236884.515625,-242710.0,-225261.25,-332598.8125,0.32568359375,0.919189453125,0.2470703125,-1.9836424589157104,-0.2746581733226776,0.7019042372703552,66.66667175292969,76510.0,1.0
21457.3875053,-202003.546875,15493.8720703125,-234723.71875,-243571.53125,-238482.484375,-243181.984375,-224991.859375,-332822.84375,0.325439453125,0.92138671875,0.2470703125,-1.9836424589157104,-0.2136230319738388,0.7019042372703552,66.66667175292969,76511.0,1.0
21457.3967023,-207679.359375,540.1076049804688,-235507.296875,-243435.90625,-239587.828125,-243922.09375,-224479.828125,-332584.125,0.324951171875,0.91943359375,0.249755859375,-2.044677495956421,-0.1525878757238388,0.7324218153953552,66.66667175292969,76512.0,1.0
21457.3967108,-201551.59375,19068.54296875,-233647.4375,-243584.578125,-238131.46875,-243531.125,-224701.828125,-332360.96875,0.325927734375,0.920166015625,0.24755859375,-1.9531248807907104,-0.2136230319738388,0.7019042372703552,66.66667175292969,76513.0,1.0
21457.4037596,-195234.09375,34594.95703125,-232629.375,-243743.1875,-236868.515625,-242773.390625,-225234.6875,-332569.3125,0.326171875,0.9189453125,0.24951171875,-1.9836424589157104,-0.1525878757238388,0.6103515028953552,66.66667175292969,76514.0,1.0
21457.4062591,-200269.578125,20201.41796875,-234329.796875,-243622.765625,-238112.4375,-243032.578125,-225108.1875,-332847.09375,0.326416015625,0.9189453125,0.251220703125,-1.9226073026657104,-0.1525878757238388,0.6103515028953552,66.66667175292969,76515.0,1.0
21457.4087698,-207597.375,486.7315979003906,-235627.984375,-243448.234375,-239619.390625,-243880.796875,-224547.78125,-332679.4375,0.32568359375,0.921142578125,0.24755859375,-1.9836424589157104,-0.2746581733226776,0.7019042372703552,66.66667175292969,76516.0,1.0
21457.4162485,-203201.5,14426.3525390625,-234056.75,-243557.140625,-238510.296875,-243695.890625,-224628.96875,-332408.09375,0.325927734375,0.921630859375,0.246826171875,-1.8920897245407104,-0.2136230319738388,0.6713866591453552,66.66667175292969,76517.0,1.0
21457.4187484,-195695.515625,33901.33984375,-232625.078125,-243743.015625,-236950.9375,-242880.5,-225185.4375,-332543.625,0.325927734375,0.919677734375,0.24560546875,-1.9836424589157104,-0.2746581733226776,0.6103515028953552,66.66667175292969,76518.0,1.0
21457.421258,-198681.265625,24583.43359375,-233928.546875,-243678.46875,-237758.828125,-242914.203125,-225201.4375,-332853.53125,0.32666015625,0.919921875,0.247314453125,-1.9531248807907104,-0.2746581733226776,0.6408690810203552,66.66667175292969,76519.0,1.0
21457.4255839,-207070.6875,1831.3232421875,-235637.828125,-243478.8125,-239540.609375,-243795.9375,-224632.53125,-332766.15625,0.323974609375,0.92138671875,0.246826171875,-2.044677495956421,-0.2441406100988388,0.6713866591453552,66.66667175292969,76520.0,1.0
21457.425592,-204638.546875,10241.5693359375,-234448.703125,-243539.25,-238843.328125,-243821.25,-224571.03125,-332464.5,0.324462890625,0.92041015625,0.246826171875,-1.9836424589157104,-0.2746581733226776,0.6713866591453552,66.66667175292969,76521.0,1.0
21457.4337487,-196404.15625,32379.54296875,-232693.828125,-243740.78125,-237083.984375,-242997.53125,-225117.84375,-332520.9375,0.3251953125,0.919189453125,0.247314453125,-1.9531248807907104,-0.2136230319738388,0.6408690810203552,66.66667175292969,76522.0,1.0
21457.4368337,-197281.515625,28396.55078125,-233547.9375,-243727.1875,-237441.515625,-242820.0625,-225274.84375,-332846.90625,0.32666015625,0.91943359375,0.246337890625,-1.9836424589157104,-0.1831054538488388,0.7324218153953552,66.66667175292969,76523.0,1.0
21457.4368416,-206178.84375,4212.49951171875,-235554.9375,-243514.9375,-239383.890625,-243680.875,-224736.515625,-332849.3125,0.3251953125,0.920166015625,0.2470703125,-1.9226073026657104,-0.1525878757238388,0.7019042372703552,66.66667175292969,76524.0,1.0
21457.4425013,-205920.1875,6424.96435546875,-234828.78125,-243521.109375,-239151.078125,-243921.46875,-224530.53125,-332532.1875,0.324951171875,0.919677734375,0.248046875,-1.8920897245407104,-0.1220703050494194,0.5798339247703552,66.66667175292969,76525.0,1.0
21457.4512513,-197474.453125,29897.42578125,-232858.34375,-243726.828125,-237301.6875,-243143.984375,-225033.703125,-332506.09375,0.324951171875,0.9189453125,0.24658203125,-1.9226073026657104,-0.0915527269244194,0.5798339247703552,66.66667175292969,76526.0,1.0
21457.4543321,-196217.65625,31373.892578125,-233217.84375,-243765.546875,-237195.5625,-242771.515625,-225324.453125,-332829.125,0.324951171875,0.919921875,0.24853515625,-1.9226073026657104,-0.1220703050494194,0.7019042372703552,66.66667175292969,76527.0,1.0
21457.4543403,-204918.203125,7628.65087890625,-235361.828125,-243555.609375,-239143.375,-243542.03125,-224856.234375,-332919.59375,0.3251953125,0.91943359375,0.2470703125,-1.9836424589157104,-0.2441406100988388,0.7019042372703552,66.66667175292969,76528.0,1.0
21457.4675039,-206892.140625,3414.005615234375,-235160.390625,-243510.90625,-239402.03125,-243989.15625,-224521.5,-332613.375,0.32470703125,0.920654296875,0.248779296875,-1.9226073026657104,-0.2136230319738388,0.7019042372703552,66.66667175292969,76529.0,1.0
21457.472444,-198794.09375,26608.14453125,-233106.890625,-243708.6875,-237584.125,-243309.03125,-224948.328125,-332509.5625,0.324951171875,0.920654296875,0.249267578125,-1.9531248807907104,-0.1525878757238388,0.7019042372703552,66.66667175292969,76530.0,1.0
21457.4724521,-195527.609375,33395.20703125,-232962.3125,-243796.921875,-237027.390625,-242765.796875,-225348.953125,-332809.09375,0.326904296875,0.920166015625,0.24609375,-1.9531248807907104,-0.1525878757238388,0.6408690810203552,66.66667175292969,76531.0,1.0
21457.4724562,-203425.375,11763.2763671875,-235088.15625,-243609.171875,-238837.96875,-243390.921875,-224978.546875,-332977.625,0.325439453125,0.919677734375,0.25048828125,-1.9531248807907104,-0.2136230319738388,0.6713866591453552,66.66667175292969,76532.0,1.0
21457.4762609,-207522.640625,1407.62353515625,-235429.5,-243513.421875,-239576.921875,-244014.984375,-224535.0,-332698.9375,0.32470703125,0.920654296875,0.2509765625,-1.9226073026657104,-0.1525878757238388,0.6713866591453552,66.66667175292969,76533.0,1.0
21457.479999,-200306.421875,22672.08984375,-233428.84375,-243690.703125,-237913.671875,-243479.53125,-224860.265625,-332526.65625,0.324462890625,0.91943359375,0.248291015625,-1.9836424589157104,-0.2136230319738388,0.6408690810203552,66.66667175292969,76534.0,1.0
21457.4968341,-195246.609375,34444.3984375,-232791.1875,-243819.1875,-236946.5625,-242801.5625,-225344.3125,-332782.34375,0.324462890625,0.919189453125,0.247314453125,-2.014159917831421,-0.2136230319738388,0.6103515028953552,66.66667175292969,76535.0,1.0
21457.4968416,-201765.0,16360.13671875,-234740.71875,-243664.609375,-238488.296875,-243237.0625,-225098.265625,-333016.25,0.325439453125,0.918701171875,0.24755859375,-2.014159917831421,-0.2441406100988388,0.5798339247703552,66.66667175292969,76536.0,1.0
21457.4993546,-207764.65625,494.510009765625,-235620.65625,-243523.96875,-239671.953125,-244002.03125,-224577.015625,-332789.96875,0.326171875,0.9189453125,0.2490234375,-2.075195074081421,-0.2136230319738388,0.7019042372703552,66.66667175292969,76537.0,1.0
21457.4993604,-201911.0,18302.234375,-233802.390625,-243666.484375,-238270.328125,-243645.828125,-224775.328125,-332557.40625,0.325439453125,0.919677734375,0.251220703125,-2.075195074081421,-0.2136230319738388,0.6713866591453552,66.66667175292969,76538.0,1.0
21457.5018425,-195363.828125,34554.7265625,-232709.203125,-243830.625,-236953.53125,-242876.21875,-225315.609375,-332754.8125,0.3251953125,0.921142578125,0.250732421875,-2.014159917831421,-0.2746581733226776,0.7324218153953552,66.66667175292969,76539.0,1.0
21457.5018482,-200060.90625,21028.1640625,-234348.21875,-243719.859375,-238127.984375,-243098.828125,-225215.65625,-333040.28125,0.32421875,0.922607421875,0.24755859375,-1.9226073026657104,-0.1831054538488388,0.7324218153953552,66.66667175292969,76540.0,1.0
21457.5087858,-207637.078125,577.9267578125,-235731.609375,-243539.34375,-239695.5625,-243959.640625,-224650.15625,-332887.125,0.3271484375,0.91943359375,0.246826171875,-1.8615721464157104,-0.2441406100988388,0.6408690810203552,66.66667175292969,76541.0,1.0
21457.5205796,-203569.5,13599.6064453125,-234219.203125,-243640.90625,-238653.703125,-243812.484375,-224706.125,-332609.53125,0.32470703125,0.919921875,0.248291015625,-1.8615721464157104,-0.2746581733226776,0.6408690810203552,66.66667175292969,76542.0,1.0
21457.5205858,-195887.65625,33683.9921875,-232720.03125,-243830.0,-237048.671875,-242990.203125,-225264.015625,-332730.59375,0.324951171875,0.919677734375,0.25048828125,-1.8310545682907104,-0.1831054538488388,0.6713866591453552,66.66667175292969,76543.0,1.0
21457.5230845,-198509.34375,25295.380859375,-233948.484375,-243772.875,-237779.296875,-242985.203125,-225304.34375,-333043.25,0.325439453125,0.919677734375,0.247802734375,-1.9836424589157104,-0.1220703050494194,0.7324218153953552,66.66667175292969,76544.0,1.0
21457.5230909,-207042.4375,2122.1640625,-235719.8125,-243567.59375,-239598.828125,-243865.953125,-224734.1875,-332968.9375,0.325439453125,0.920654296875,0.245361328125,-2.075195074081421,-0.1831054538488388,0.6713866591453552,66.66667175292969,76545.0,1.0
21457.5312504,-205010.296875,9408.3857421875,-234613.9375,-243619.359375,-238987.453125,-243934.078125,-224647.015625,-332665.40625,0.324462890625,0.92041015625,0.245361328125,-2.014159917831421,-0.1525878757238388,0.5798339247703552,66.66667175292969,76546.0,1.0
21457.5405847,-196702.6875,31954.771484375,-232812.65625,-243823.484375,-237206.109375,-243117.4375,-225189.90625,-332707.6875,0.323486328125,0.92041015625,0.24462890625,-1.9226073026657104,-0.1525878757238388,0.6713866591453552,66.66667175292969,76547.0,1.0
21457.540593,-197172.34375,28970.8125,-233574.125,-243820.34375,-237474.59375,-242901.15625,-225372.65625,-333033.9375,0.326416015625,0.92138671875,0.24658203125,-1.8615721464157104,-0.1525878757238388,0.7019042372703552,66.66667175292969,76548.0,1.0
21457.5549291,-206083.984375,4703.61181640625,-235616.546875,-243605.5,-239426.4375,-243748.203125,-224841.21875,-333050.03125,0.327880859375,0.91943359375,0.2509765625,-1.9531248807907104,-0.2441406100988388,0.7934569716453552,66.66667175292969,76549.0,1.0
21457.5549375,-206246.4375,5714.53662109375,-234987.390625,-243604.4375,-239287.140625,-244031.171875,-224611.890625,-332734.96875,0.326171875,0.919189453125,0.250732421875,-1.9836424589157104,-0.1525878757238388,0.7934569716453552,66.66667175292969,76550.0,1.0
