Time,FZ,C3,CZ,C4,PZ,PO7,OZ,PO8,AccX,AccY,AccZ,Gyro1,Gyro2,Gyro3,Battery,Counter,Validation
749.9889225,107598.4453125,107701.796875,108315.7578125,107888.390625,107828.3046875,107913.421875,108099.2109375,108213.6484375,-0.071044921875,1.00830078125,-0.010009765625,-1.9226073026657104,-0.1220703050494194,0.6713866591453552,73.33333587646484,1634.0,1.0
749.991413,107608.0078125,107711.453125,108325.0546875,107897.59375,107837.4296875,107922.6328125,108108.5078125,108223.21875,-0.072509765625,1.009765625,-0.011474609375,-1.9531248807907104,-0.1525878757238388,0.6103515028953552,73.33333587646484,1635.0,1.0
749.993924,107574.125,107677.4765625,108290.9921875,107863.890625,107803.71875,107888.921875,108074.8046875,108189.15625,-0.07470703125,1.009521484375,-0.010498046875,-1.9531248807907104,-0.1525878757238388,0.7019042372703552,73.33333587646484,1636.0,1.0
749.9964224,107642.34375,107745.609375,108359.3828125,107931.9296875,107871.8515625,107957.3203125,108143.0234375,108257.375,-0.0732421875,1.009033203125,-0.01123046875,-1.9531248807907104,-0.1831054538488388,0.7629393935203552,73.33333587646484,1637.0,1.0
749.9989178,107753.828125,107857.0078125,108471.140625,108043.6875,107983.15625,108068.9921875,108254.2421875,108369.0390625,-0.073974609375,1.010009765625,-0.013427734375,-1.9836424589157104,-0.1831054538488388,0.7019042372703552,73.33333587646484,1638.0,1.0
750.0014059,107783.421875,107887.046875,108501.09375,108073.90625,108013.0234375,108098.8515625,108284.375,108398.90625,-0.072998046875,1.010986328125,-0.01171875,-2.014159917831421,-0.0915527269244194,0.6408690810203552,73.33333587646484,1639.0,1.0
750.0039213,107745.0703125,107848.6953125,108462.5625,108035.28125,107974.6640625,108060.3203125,108245.8359375,108360.3671875,-0.072021484375,1.012451171875,-0.010009765625,-1.9836424589157104,-0.1831054538488388,0.6408690810203552,73.33333587646484,1640.0,1.0
750.0063897,107792.09375,107895.6328125,108509.3203125,108082.2265625,108021.6015625,108106.8984375,108292.7734375,108407.125,-0.0712890625,1.0107421875,-0.011474609375,-2.014159917831421,-0.0610351525247097,0.7324218153953552,73.33333587646484,1641.0,1.0
750.0093628,107903.140625,108006.671875,108620.8984375,108193.265625,108132.46875,108218.125,108404.265625,108518.2578125,-0.072021484375,1.0126953125,-0.01318359375,-2.044677495956421,-0.1525878757238388,0.7019042372703552,73.33333587646484,1642.0,1.0
750.00937,107945.0703125,108048.4296875,108662.828125,108235.46875,108174.578125,108259.875,108446.0234375,108560.375,-0.07177734375,1.012451171875,-0.01171875,-2.044677495956421,-0.1220703050494194,0.6713866591453552,73.33333587646484,1643.0,1.0
750.0151617,107906.984375,108010.609375,108624.921875,108197.734375,108136.7578125,108222.1484375,108408.0234375,108522.4609375,-0.07275390625,1.010498046875,-0.00927734375,-2.044677495956421,-0.1525878757238388,0.5798339247703552,73.33333587646484,1644.0,1.0
750.0176596,107934.8828125,108038.59375,108652.4609375,108225.1875,108164.7421875,108250.21875,108436.0078125,108549.8203125,-0.072509765625,1.009765625,-0.00927734375,-1.9836424589157104,-0.1220703050494194,0.6103515028953552,73.33333587646484,1645.0,1.0
750.0208015,108046.1953125,108150.0859375,108763.859375,108336.5,108276.234375,108361.4375,108547.5,108661.4921875,-0.073486328125,1.009765625,-0.0107421875,-2.014159917831421,-0.2441406100988388,0.7019042372703552,73.33333587646484,1646.0,1.0
750.0208085,108116.5546875,108219.90625,108834.2265625,108406.5,108346.15625,108431.359375,108617.7734375,108732.125,-0.07373046875,1.011474609375,-0.01171875,-2.044677495956421,-0.1525878757238388,0.6408690810203552,73.33333587646484,1647.0,1.0
750.0226687,108084.546875,108188.171875,108801.953125,108374.4921875,108314.1484375,108399.171875,108585.5859375,108700.0234375,-0.073974609375,1.01171875,-0.0107421875,-2.044677495956421,-0.2136230319738388,0.7324218153953552,73.33333587646484,1648.0,1.0
750.0314123,108090.1796875,108193.890625,108807.40625,108380.3046875,108319.953125,108405.1640625,108591.0390625,108705.5703125,-0.0732421875,1.01318359375,-0.012451171875,-1.9836424589157104,-0.2441406100988388,0.8239745497703552,73.33333587646484,1649.0,1.0
750.0358136,108194.875,108298.5,108912.453125,108485.0,108424.828125,108510.125,108695.5546875,108809.9921875,-0.0732421875,1.011962890625,-0.010498046875,-1.9836424589157104,-0.1525878757238388,0.7324218153953552,73.33333587646484,1650.0,1.0
750.0358223,108281.5078125,108385.3984375,108999.5390625,108571.640625,108511.375,108596.9375,108782.28125,108897.078125,-0.073486328125,1.01025390625,-0.010009765625,-1.9531248807907104,-0.1525878757238388,0.7324218153953552,73.33333587646484,1651.0,1.0
750.0464112,108261.3984375,108365.5546875,108979.421875,108551.5234375,108491.2578125,108577.0,108762.703125,108877.0546875,-0.073974609375,1.009521484375,-0.010498046875,-1.9836424589157104,-0.1831054538488388,0.7629393935203552,73.33333587646484,1652.0,1.0
750.0494947,108248.4296875,108352.140625,108966.3671875,108538.5546875,108478.203125,108564.0390625,108749.6484375,108863.90625,-0.0712890625,1.011474609375,-0.01171875,-2.014159917831421,-0.1525878757238388,0.7934569716453552,73.33333587646484,1653.0,1.0
750.0495014,108344.09375,108447.453125,109062.03125,108634.1328125,108573.515625,108659.34375,108845.046875,108959.3046875,-0.072509765625,1.01318359375,-0.012451171875,-2.044677495956421,-0.0915527269244194,0.7934569716453552,73.33333587646484,1654.0,1.0
750.0551554,108439.7578125,108543.4765625,109157.7890625,108729.9765625,108669.5390625,108755.28125,108941.0703125,109055.421875,-0.072021484375,1.01220703125,-0.014404296875,-2.136230230331421,-0.1220703050494194,0.8850097060203552,73.33333587646484,1655.0,1.0
750.0576521,108423.9375,108527.734375,109141.9609375,108714.421875,108653.984375,108739.71875,108925.2421875,109040.0390625,-0.072265625,1.01220703125,-0.011474609375,-2.014159917831421,-0.1525878757238388,0.7934569716453552,73.33333587646484,1656.0,1.0
750.0614286,108397.1171875,108501.359375,109115.3203125,108687.6015625,108627.4296875,108713.078125,108898.5078125,109013.3984375,-0.07275390625,1.011474609375,-0.01025390625,-1.9836424589157104,-0.2441406100988388,0.7324218153953552,73.33333587646484,1657.0,1.0
750.0657974,108482.140625,108586.2109375,109199.9921875,108772.8046875,108712.2734375,108797.4765625,108983.359375,109098.2421875,-0.073486328125,1.009033203125,-0.01025390625,-2.014159917831421,-0.1525878757238388,0.7934569716453552,73.33333587646484,1658.0,1.0
750.0658047,108591.21875,108695.2890625,109309.2421875,108882.1484375,108821.3515625,108906.734375,109092.4296875,109207.40625,-0.072265625,1.010986328125,-0.010498046875,-2.014159917831421,-0.0915527269244194,0.7019042372703552,73.33333587646484,1659.0,1.0
750.0794979,108601.140625,108705.390625,109319.6171875,108891.8046875,108831.6328125,108916.9296875,109102.7109375,109217.421875,-0.072265625,1.009765625,-0.01025390625,-1.8920897245407104,-0.2136230319738388,0.7019042372703552,73.33333587646484,1660.0,1.0
750.0795054,108565.2890625,108669.265625,109283.5859375,108855.7734375,108795.6875,108881.25,109066.859375,109181.390625,-0.0732421875,1.010498046875,-0.009765625,-1.9836424589157104,-0.2441406100988388,0.7324218153953552,73.33333587646484,1661.0,1.0
750.0814048,108630.375,108734.265625,109348.5859375,108920.953125,108860.421875,108945.984375,109131.7734375,109246.3046875,-0.071533203125,1.011962890625,-0.00732421875,-2.044677495956421,-0.2136230319738388,0.6408690810203552,73.33333587646484,1662.0,1.0
750.0851698,108744.546875,108848.171875,109463.0234375,109034.9453125,108974.59375,109060.2421875,109246.2109375,109360.65625,-0.0712890625,1.01171875,-0.006591796875,-1.9836424589157104,-0.2746581733226776,0.6713866591453552,73.33333587646484,1663.0,1.0
750.0889043,108774.234375,108877.9453125,109492.796875,109064.8046875,109004.546875,109089.8359375,109275.984375,109390.4296875,-0.0712890625,1.01171875,-0.01025390625,-2.014159917831421,-0.2136230319738388,0.7324218153953552,73.33333587646484,1664.0,1.0
750.1032443,108735.7890625,108839.5859375,109454.6171875,109026.5390625,108966.28125,109051.5703125,109237.453125,109351.984375,-0.07177734375,1.01123046875,-0.010498046875,-2.044677495956421,-0.1831054538488388,0.7934569716453552,73.33333587646484,1665.0,1.0
750.1032514,108782.1875,108885.8125,109500.578125,109072.765625,109012.1484375,109097.8828125,109283.671875,109397.7578125,-0.07177734375,1.010498046875,-0.00830078125,-1.9836424589157104,-0.1525878757238388,0.7934569716453552,73.33333587646484,1666.0,1.0
750.1057923,108893.0546875,108996.765625,109611.7109375,109183.8984375,109123.0078125,109209.015625,109394.625,109508.890625,-0.072021484375,1.0107421875,-0.00732421875,-2.014159917831421,-0.1525878757238388,0.7019042372703552,73.33333587646484,1667.0,1.0
750.1057977,108937.7578125,109041.7421875,109656.59375,109228.6015625,109168.0703125,109253.9921875,109439.5078125,109554.1328125,-0.07373046875,1.009765625,-0.009765625,-2.044677495956421,-0.0915527269244194,0.7629393935203552,73.33333587646484,1668.0,1.0
750.1076719,108896.2734375,109000.1640625,109615.015625,109187.0234375,109126.671875,109212.5078125,109398.0234375,109512.734375,-0.07470703125,1.009765625,-0.009033203125,-2.105712652206421,-0.3051757514476776,0.7324218153953552,73.33333587646484,1669.0,1.0
750.1101835,108919.875,109023.859375,109638.53125,109210.453125,109150.3671875,109236.109375,109422.078125,109536.609375,-0.074951171875,1.009521484375,-0.009521484375,-1.9836424589157104,-0.2136230319738388,0.7629393935203552,73.33333587646484,1670.0,1.0
750.1239143,109031.7265625,109135.9765625,109750.9140625,109322.390625,109262.3046875,109348.1328125,109534.1015625,109648.546875,-0.073974609375,1.0107421875,-0.010986328125,-1.8615721464157104,-0.2441406100988388,0.7324218153953552,73.33333587646484,1671.0,1.0
750.1269966,109105.6640625,109209.5546875,109824.671875,109396.328125,109335.796875,109421.5390625,109607.6875,109722.0390625,-0.0732421875,1.009521484375,-0.0087890625,-1.8615721464157104,-0.3051757514476776,0.7019042372703552,73.33333587646484,1672.0,1.0
750.1270038,109074.375,109178.3515625,109793.4765625,109365.125,109304.5078125,109390.3359375,109576.2109375,109690.7421875,-0.07275390625,1.010009765625,-0.0078125,-1.9226073026657104,-0.1831054538488388,0.6713866591453552,73.33333587646484,1673.0,1.0
750.1289214,109075.8046875,109179.6015625,109794.546875,109366.46875,109305.9375,109391.765625,109577.5546875,109692.171875,-0.073486328125,1.01025390625,-0.008056640625,-1.9531248807907104,-0.1831054538488388,0.7324218153953552,73.33333587646484,1674.0,1.0
750.133908,109180.5,109284.5703125,109899.328125,109471.4296875,109410.9921875,109496.8203125,109682.4296875,109797.3203125,-0.0732421875,1.009033203125,-0.00927734375,-1.9531248807907104,-0.0915527269244194,0.7934569716453552,73.33333587646484,1675.0,1.0
750.1376693,109268.4765625,109373.171875,109987.578125,109559.765625,109499.0546875,109585.0625,109770.671875,109885.3828125,-0.072998046875,1.008544921875,-0.01220703125,-2.014159917831421,-0.2136230319738388,0.7629393935203552,73.33333587646484,1676.0,1.0
750.1444989,109248.8046875,109353.4140625,109967.90625,109539.734375,109479.1171875,109565.125,109750.734375,109865.4453125,-0.07275390625,1.009521484375,-0.012939453125,-1.9836424589157104,-0.2136230319738388,0.7629393935203552,73.33333587646484,1677.0,1.0
750.144506,109232.0,109336.3359375,109950.921875,109522.75,109462.578125,109548.5,109733.5703125,109848.546875,-0.072265625,1.01025390625,-0.009765625,-1.9836424589157104,-0.2441406100988388,0.7324218153953552,73.33333587646484,1678.0,1.0
750.1464234,109327.390625,109431.8203125,110046.4921875,109618.4140625,109558.0625,109643.8046875,109829.328125,109944.2109375,-0.073486328125,1.011962890625,-0.010986328125,-2.075195074081421,-0.0610351525247097,0.7324218153953552,73.33333587646484,1679.0,1.0
750.1551487,109425.7421875,109530.078125,110145.0234375,109716.671875,109656.4140625,109742.421875,109927.9375,110042.7421875,-0.0712890625,1.0126953125,-0.01123046875,-1.9836424589157104,-0.1220703050494194,0.7019042372703552,73.33333587646484,1680.0,1.0
750.1594986,109408.484375,109512.46875,110127.5,109699.7734375,109638.9765625,109724.984375,109910.5078125,110025.3046875,-0.072021484375,1.0126953125,-0.011962890625,-1.8615721464157104,-0.1831054538488388,0.6103515028953552,73.33333587646484,1681.0,1.0
750.1595057,109378.984375,109483.140625,110098.0859375,109670.09375,109609.4765625,109695.484375,109881.0,109995.7109375,-0.072509765625,1.01220703125,-0.012451171875,-1.9531248807907104,-0.1831054538488388,0.6713866591453552,73.33333587646484,1682.0,1.0
750.1732439,109460.5234375,109564.9453125,110179.9765625,109751.71875,109691.015625,109777.203125,109963.078125,110077.25,-0.072021484375,1.0126953125,-0.01123046875,-1.9836424589157104,-0.1831054538488388,0.7629393935203552,73.33333587646484,1683.0,1.0
750.1732513,109570.9375,109675.1875,110290.21875,109862.046875,109801.515625,109887.796875,110073.4921875,110188.0234375,-0.0732421875,1.01220703125,-0.011474609375,-1.9531248807907104,-0.1220703050494194,0.6713866591453552,73.33333587646484,1684.0,1.0
750.1751638,109581.3984375,109685.6484375,110300.859375,109872.5078125,109812.15625,109897.8125,110083.8671875,110197.953125,-0.072021484375,1.013671875,-0.012451171875,-1.9531248807907104,-0.2441406100988388,0.6713866591453552,73.33333587646484,1685.0,1.0
750.1788993,109546.0859375,109650.2421875,110265.0078125,109836.8359375,109776.578125,109862.3125,110048.28125,110162.6328125,-0.07421875,1.01220703125,-0.011474609375,-1.9226073026657104,-0.1831054538488388,0.6713866591453552,73.33333587646484,1686.0,1.0
750.1926989,109610.9921875,109715.421875,110329.9140625,109902.1953125,109841.75,109927.765625,110113.1953125,110227.9921875,-0.074462890625,1.010986328125,-0.0107421875,-1.9836424589157104,-0.2441406100988388,0.6713866591453552,73.33333587646484,1687.0,1.0
750.1958034,109724.6328125,109829.1484375,110444.0859375,110016.09375,109955.2109375,110041.578125,110227.3671875,110341.625,-0.073974609375,1.0107421875,-0.010498046875,-1.8920897245407104,-0.1525878757238388,0.7629393935203552,73.33333587646484,1688.0,1.0
750.1958109,109756.546875,109860.703125,110475.828125,110047.75,109987.0390625,110073.40625,110259.28125,110373.453125,-0.07373046875,1.010986328125,-0.010009765625,-1.9531248807907104,-0.1831054538488388,0.7629393935203552,73.33333587646484,1689.0,1.0
750.1976535,109716.7578125,109820.65625,110435.859375,110008.046875,109946.8984375,110033.53125,110219.046875,110333.578125,-0.07373046875,1.0107421875,-0.009521484375,-2.014159917831421,-0.1220703050494194,0.7019042372703552,73.33333587646484,1690.0,1.0
750.2001689,109757.7109375,109861.421875,110476.5390625,110048.4609375,109987.578125,110074.125,110259.7265625,110374.3515625,-0.0732421875,1.01123046875,-0.009765625,-1.9531248807907104,-0.2136230319738388,0.5493163466453552,73.33333587646484,1691.0,1.0
750.2026696,109869.9140625,109973.71875,110588.9296875,110160.4921875,110099.8671875,110186.328125,110372.203125,110486.375,-0.072509765625,1.01123046875,-0.008544921875,-1.8920897245407104,-0.2746581733226776,0.6713866591453552,73.33333587646484,1692.0,1.0
750.2119974,109919.1796875,110023.15625,110638.1015625,110210.109375,110148.8671875,110235.5,110421.375,110535.8203125,-0.07177734375,1.012451171875,-0.01025390625,-2.014159917831421,-0.2136230319738388,0.7629393935203552,73.33333587646484,1693.0,1.0
750.2120043,109874.5625,109978.9921875,110594.0234375,110166.1171875,110105.1484375,110191.3359375,110377.125,110491.921875,-0.06982421875,1.01171875,-0.011962890625,-1.9836424589157104,-0.1525878757238388,0.7019042372703552,73.33333587646484,1694.0,1.0
750.2144981,109896.203125,110000.625,110615.9296875,110187.7578125,110126.875,110212.96875,110398.84375,110513.375,-0.071044921875,1.0126953125,-0.011962890625,-1.9226073026657104,-0.2136230319738388,0.7934569716453552,73.33333587646484,1695.0,1.0
750.2145041,110006.0859375,110110.1484375,110725.453125,110297.28125,110236.3984375,110322.765625,110508.7265625,110623.078125,-0.072509765625,1.011962890625,-0.009765625,-1.9531248807907104,-0.1525878757238388,0.7019042372703552,73.33333587646484,1696.0,1.0
750.226418,110078.7734375,110183.109375,110798.5859375,110370.1484375,110309.4375,110395.984375,110581.7734375,110696.0390625,-0.07275390625,1.01123046875,-0.01318359375,-1.9531248807907104,-0.1525878757238388,0.7324218153953552,73.33333587646484,1697.0,1.0
750.2289178,110048.015625,110152.3515625,110767.5625,110339.3046875,110278.6875,110365.140625,110550.390625,110665.1875,-0.072021484375,1.01123046875,-0.011962890625,-1.9226073026657104,-0.2136230319738388,0.6408690810203552,73.33333587646484,1698.0,1.0
750.2314048,110050.4296875,110154.2265625,110769.796875,110341.5390625,110280.7421875,110367.015625,110552.71875,110667.4296875,-0.071533203125,1.010986328125,-0.009521484375,-1.9836424589157104,-0.2136230319738388,0.7324218153953552,73.33333587646484,1699.0,1.0
750.2351759,110154.859375,110259.015625,110874.40625,110445.96875,110385.2578125,110471.5390625,110657.59375,110772.03125,-0.072021484375,1.0107421875,-0.009521484375,-1.9531248807907104,-0.1831054538488388,0.6408690810203552,73.33333587646484,1700.0,1.0
750.2444945,110243.9921875,110347.9765625,110963.5390625,110535.1015625,110474.21875,110560.5859375,110746.640625,110861.171875,-0.07421875,1.01025390625,-0.0087890625,-1.9531248807907104,-0.3051757514476776,0.5798339247703552,73.33333587646484,1701.0,1.0
750.2445011,110222.71875,110326.7890625,110942.53125,110514.09375,110453.203125,110539.84375,110725.453125,110840.1640625,-0.072021484375,1.0107421875,-0.005615234375,-2.014159917831421,-0.1525878757238388,0.6103515028953552,73.33333587646484,1702.0,1.0
750.2469923,110203.40625,110307.6484375,110923.3125,110494.8671875,110433.984375,110520.6171875,110706.140625,110820.578125,-0.07177734375,1.010009765625,-0.00927734375,-1.9836424589157104,-0.0915527269244194,0.7324218153953552,73.33333587646484,1703.0,1.0
750.2469992,110296.5625,110400.7265625,111016.0234375,110587.765625,110526.875,110613.421875,110798.9453125,110913.4765625,-0.072021484375,1.010498046875,-0.009033203125,-2.014159917831421,-0.1525878757238388,0.7324218153953552,73.33333587646484,1704.0,1.0
750.2551841,110396.7890625,110501.0390625,111116.25,110687.9921875,110627.1015625,110713.6484375,110899.3515625,111014.234375,-0.07275390625,1.010009765625,-0.010009765625,-1.9226073026657104,-0.1220703050494194,0.6408690810203552,73.33333587646484,1705.0,1.0
750.2595152,110383.2890625,110487.359375,111102.4765625,110674.9375,110613.6953125,110700.4140625,110885.578125,111000.6484375,-0.07421875,1.011474609375,-0.0107421875,-1.9836424589157104,-0.1220703050494194,0.6713866591453552,73.33333587646484,1706.0,1.0
750.2595206,110349.5859375,110453.65625,111068.8671875,110640.9609375,110579.8984375,110666.7109375,110851.9609375,110966.9375,-0.073974609375,1.01123046875,-0.009765625,-1.9836424589157104,-0.1525878757238388,0.7934569716453552,73.33333587646484,1707.0,1.0
750.2626529,110428.265625,110532.2421875,111147.5390625,110719.546875,110658.484375,110745.2109375,110930.90625,111045.3515625,-0.07177734375,1.011962890625,-0.010986328125,-2.014159917831421,-0.2136230319738388,0.7324218153953552,73.33333587646484,1708.0,1.0
750.2714183,110536.984375,110640.875,111256.4375,110828.359375,110767.203125,110854.015625,111039.71875,111154.15625,-0.073486328125,1.009765625,-0.009033203125,-1.9836424589157104,-0.1220703050494194,0.7019042372703552,73.33333587646484,1709.0,1.0
750.2757962,110550.75,110655.0859375,111270.4765625,110842.21875,110781.1484375,110867.96875,111053.6640625,111168.4609375,-0.0703125,1.009521484375,-0.01025390625,-2.136230230331421,-0.2136230319738388,0.7629393935203552,73.33333587646484,1710.0,1.0
750.2758038,110514.2734375,110618.96875,111234.0859375,110805.5625,110744.9453125,110831.484375,111017.09375,111132.0703125,-0.071044921875,1.009765625,-0.0087890625,-2.014159917831421,-0.1525878757238388,0.6408690810203552,73.33333587646484,1711.0,1.0
750.2864195,110576.859375,110681.1953125,111296.3125,110867.6953125,110807.3515625,110893.625,111079.5,111194.390625,-0.07373046875,1.009521484375,-0.008056640625,-2.014159917831421,-0.1220703050494194,0.6408690810203552,73.33333587646484,1712.0,1.0
750.2894907,110687.5390625,110791.7890625,111407.5390625,110979.28125,110918.125,111005.1171875,111190.453125,111305.5234375,-0.072265625,1.010986328125,-0.0087890625,-1.9836424589157104,-0.1525878757238388,0.7019042372703552,73.33333587646484,1713.0,1.0
750.2894974,110719.640625,110823.890625,111439.453125,111011.9140625,110950.3984375,111037.125,111222.640625,111337.6171875,-0.07177734375,1.01025390625,-0.0078125,-1.9531248807907104,-0.1220703050494194,0.7629393935203552,73.33333587646484,1714.0,1.0
750.2976564,110680.75,110785.171875,111400.65625,110972.6640625,110911.1484375,110998.140625,111183.75,111298.640625,-0.071533203125,1.010498046875,-0.009521484375,-1.9531248807907104,-0.1525878757238388,0.7934569716453552,73.33333587646484,1715.0,1.0
750.3007871,110722.5,110826.9296875,111442.3125,111014.0546875,110952.8125,111039.8046875,111225.328125,111340.125,-0.0732421875,1.01123046875,-0.013427734375,-1.9836424589157104,-0.03051757626235485,0.8239745497703552,73.33333587646484,1716.0,1.0
750.300793,110833.9921875,110938.421875,111554.078125,111125.8125,111064.5703125,111151.4765625,111337.265625,111451.8828125,-0.07275390625,1.01025390625,-0.009765625,-1.9226073026657104,-0.1831054538488388,0.7324218153953552,73.33333587646484,1717.0,1.0
750.3026533,110885.3125,110990.3671875,111605.9296875,111177.5859375,111116.3359375,111202.8828125,111388.4921875,111503.5625,-0.07177734375,1.011474609375,-0.009033203125,-1.9531248807907104,-0.2136230319738388,0.7324218153953552,73.33333587646484,1718.0,1.0
750.3114255,110839.4453125,110943.875,111559.4375,111131.09375,111069.9375,111157.109375,111342.1796875,111457.0703125,-0.072265625,1.010498046875,-0.010498046875,-2.044677495956421,-0.2136230319738388,0.6713866591453552,73.33333587646484,1719.0,1.0
750.3139071,110856.96875,110961.0390625,111576.609375,111148.34375,111087.28125,111174.6328125,111359.703125,111474.1484375,-0.0732421875,1.01123046875,-0.010009765625,-1.9226073026657104,-0.2136230319738388,0.6713866591453552,73.33333587646484,1720.0,1.0
750.3201479,110966.2265625,111070.5625,111686.0390625,111258.3203125,111197.0703125,111283.890625,111469.4921875,111584.0234375,-0.073974609375,1.0107421875,-0.01123046875,-1.9836424589157104,-0.1831054538488388,0.7019042372703552,73.33333587646484,1721.0,1.0
750.3243378,111040.8828125,111145.21875,111760.6015625,111332.703125,111271.7265625,111358.453125,111544.0625,111658.859375,-0.073486328125,1.009765625,-0.010498046875,-2.075195074081421,-0.1525878757238388,0.6103515028953552,73.33333587646484,1722.0,1.0
750.324344,111010.9296875,111115.3515625,111730.921875,111302.6640625,111241.8671875,111328.5,111514.109375,111629.0,-0.0712890625,1.012451171875,-0.009521484375,-1.9226073026657104,-0.2136230319738388,0.6713866591453552,73.33333587646484,1723.0,1.0
750.330175,111008.3359375,111112.765625,111728.421875,111299.9765625,111239.1875,111325.90625,111511.609375,111626.4921875,-0.07275390625,1.01171875,-0.008544921875,-1.9226073026657104,-0.0915527269244194,0.6408690810203552,73.33333587646484,1724.0,1.0
750.3326443,111109.6328125,111214.1484375,111829.8984375,111401.1015625,111340.2109375,111427.1171875,111612.7265625,111727.5234375,-0.072509765625,1.011474609375,-0.010986328125,-1.8920897245407104,-0.0915527269244194,0.7019042372703552,73.33333587646484,1725.0,1.0
750.3419934,111200.0234375,111304.6328125,111920.375,111491.9375,111430.78125,111517.7734375,111703.5625,111818.0078125,-0.071044921875,1.01123046875,-0.0107421875,-1.8920897245407104,-0.1220703050494194,0.6713866591453552,73.33333587646484,1726.0,1.0
750.3420007,111180.625,111285.40625,111900.796875,111472.5390625,111411.3828125,111498.1953125,111684.1640625,111798.6015625,-0.072265625,1.01025390625,-0.0107421875,-2.075195074081421,-0.2136230319738388,0.6713866591453552,73.33333587646484,1727.0,1.0
750.34391,111161.3984375,111266.3671875,111882.0234375,111453.3125,111392.3359375,111479.1484375,111664.8515625,111779.3828125,-0.0732421875,1.01123046875,-0.00830078125,-1.9836424589157104,-0.1525878757238388,0.7019042372703552,73.33333587646484,1728.0,1.0
750.3526514,111254.3828125,111359.078125,111974.734375,111546.2109375,111484.9609375,111571.953125,111757.7421875,111872.3671875,-0.073974609375,1.01318359375,-0.008056640625,-2.014159917831421,-0.1220703050494194,0.6713866591453552,73.33333587646484,1729.0,1.0
750.3569964,111355.4140625,111459.9296875,112075.5,111647.0546875,111585.7265625,111672.71875,111858.5078125,111973.390625,-0.07177734375,1.011474609375,-0.011474609375,-1.9531248807907104,-0.0915527269244194,0.7019042372703552,73.33333587646484,1730.0,1.0
750.3570041,111344.7734375,111449.5546875,112064.9453125,111636.59375,111575.53125,111662.4375,111848.2265625,111962.9296875,-0.07080078125,1.009033203125,-0.01171875,-1.9226073026657104,-0.1220703050494194,0.5798339247703552,73.33333587646484,1731.0,1.0
750.3701536,111307.046875,111411.828125,112027.21875,111598.78125,111538.0703125,111624.6171875,111810.3125,111925.203125,-0.072998046875,1.010986328125,-0.01123046875,-1.9836424589157104,-0.0915527269244194,0.6408690810203552,73.33333587646484,1732.0,1.0
750.3750896,111384.3828125,111489.34375,112104.8203125,111676.5625,111615.40625,111702.1328125,111887.7421875,112002.5390625,-0.07373046875,1.009521484375,-0.011962890625,-1.9226073026657104,-0.1831054538488388,0.7019042372703552,73.33333587646484,1733.0,1.0
750.3750957,111494.4375,111599.5859375,112215.2421875,111786.53125,111725.9140625,111812.4609375,111997.984375,112113.046875,-0.073974609375,1.01171875,-0.01123046875,-1.9836424589157104,-0.2136230319738388,0.6713866591453552,73.33333587646484,1734.0,1.0
750.3750984,111509.1015625,111614.15625,112229.546875,111801.109375,111740.4921875,111826.765625,112012.734375,112127.53125,-0.07373046875,1.01220703125,-0.009521484375,-1.9836424589157104,-0.0915527269244194,0.7629393935203552,73.33333587646484,1735.0,1.0
750.3777504,111469.3203125,111574.015625,112189.578125,111761.5859375,111700.078125,111786.8046875,111972.765625,112087.5703125,-0.0732421875,1.0107421875,-0.009765625,-1.9531248807907104,-0.0610351525247097,0.7934569716453552,73.33333587646484,1736.0,1.0
750.3801624,111528.6796875,111633.3828125,112248.765625,111820.7734375,111759.3515625,111846.2578125,112031.7734375,112146.84375,-0.072509765625,1.01025390625,-0.011962890625,-1.9836424589157104,-0.0915527269244194,0.7629393935203552,73.33333587646484,1737.0,1.0
750.394478,111640.3515625,111745.3203125,112361.0625,111932.4453125,111871.0234375,111958.640625,112143.7109375,112258.8671875,-0.0712890625,1.010009765625,-0.011962890625,-1.9531248807907104,-0.2136230319738388,0.7324218153953552,73.33333587646484,1738.0,1.0
750.394484,111675.0390625,111779.3828125,112395.21875,111966.78125,111905.625,111992.703125,112178.1328125,112293.203125,-0.0693359375,1.0126953125,-0.010986328125,-1.9836424589157104,-0.2441406100988388,0.6713866591453552,73.33333587646484,1739.0,1.0
750.3969994,111635.5234375,111739.7734375,112355.875,111927.171875,111866.015625,111953.1015625,112138.796875,112253.5078125,-0.07177734375,1.011962890625,-0.008544921875,-1.8920897245407104,-0.0610351525247097,0.6408690810203552,73.33333587646484,1740.0,1.0
750.3970066,111672.625,111777.0546875,112392.984375,111964.1875,111903.2109375,111990.109375,112176.34375,112290.6953125,-0.072265625,1.010986328125,-0.0087890625,-1.9226073026657104,-0.0915527269244194,0.7934569716453552,73.33333587646484,1741.0,1.0
750.4101508,111783.671875,111888.28125,112503.578125,112075.5859375,112014.5234375,112101.515625,112287.2109375,112401.65625,-0.07373046875,1.010009765625,-0.009765625,-1.8920897245407104,-0.1831054538488388,0.7934569716453552,73.33333587646484,1742.0,1.0
750.4207788,111838.390625,111943.265625,112558.5625,112130.5703125,112069.1484375,112156.5,112341.9296875,112456.28125,-0.07275390625,1.010498046875,-0.010009765625,-1.9531248807907104,-0.0915527269244194,0.7324218153953552,73.33333587646484,1743.0,1.0
750.4207874,111791.71875,111896.4140625,112512.0703125,112083.71875,112022.296875,112109.828125,112295.2578125,112409.875,-0.07470703125,1.010498046875,-0.01171875,-1.9531248807907104,-0.2441406100988388,0.6103515028953552,73.33333587646484,1744.0,1.0
750.4207901,111805.84375,111910.5390625,112526.375,112097.7578125,112036.515625,112123.7734375,112309.03125,112423.828125,-0.07373046875,1.011962890625,-0.010986328125,-1.9836424589157104,-0.2136230319738388,0.6103515028953552,73.33333587646484,1745.0,1.0
750.4207923,111915.1015625,112019.6171875,112635.8984375,112207.1015625,112145.953125,112232.9453125,112418.5546875,112533.078125,-0.0732421875,1.0126953125,-0.009033203125,-1.9531248807907104,-0.1525878757238388,0.6713866591453552,73.33333587646484,1746.0,1.0
750.423226,111988.59375,112092.9296875,112709.125,112280.4140625,112219.4453125,112306.2578125,112492.046875,112606.484375,-0.072021484375,1.012451171875,-0.012939453125,-1.9531248807907104,-0.2441406100988388,0.5798339247703552,73.33333587646484,1747.0,1.0
750.4232324,111959.0859375,112063.515625,112679.7109375,112251.1796875,112189.8515625,112277.109375,112462.453125,112576.890625,-0.072265625,1.01123046875,-0.009521484375,-2.014159917831421,-0.1525878757238388,0.6713866591453552,73.33333587646484,1748.0,1.0
750.4250047,111955.0625,112059.7578125,112675.953125,112247.4296875,112186.09375,112272.90625,112458.875,112573.3125,-0.072021484375,1.010498046875,-0.01220703125,-2.014159917831421,-0.1525878757238388,0.7019042372703552,73.33333587646484,1749.0,1.0
750.4338975,112057.171875,112162.0390625,112778.234375,112349.3515625,112287.9296875,112375.1015625,112561.0625,112675.6875,-0.073974609375,1.010009765625,-0.009765625,-2.044677495956421,-0.2136230319738388,0.7019042372703552,73.33333587646484,1750.0,1.0
750.4482484,112148.09375,112252.703125,112868.984375,112440.1875,112378.5,112465.578125,112651.7265625,112766.4375,-0.07373046875,1.010986328125,-0.00830078125,-2.014159917831421,-0.2136230319738388,0.7019042372703552,73.33333587646484,1751.0,1.0
750.4482571,112128.0703125,112232.40625,112848.6875,112420.0703125,112358.3828125,112445.4609375,112631.25,112746.046875,-0.073486328125,1.010009765625,-0.007568359375,-2.014159917831421,-0.1831054538488388,0.6713866591453552,73.33333587646484,1752.0,1.0
750.4550908,112109.46875,112214.078125,112830.4453125,112401.3828125,112339.875,112426.953125,112613.1015625,112727.453125,-0.073974609375,1.010986328125,-0.012451171875,-1.9226073026657104,-0.1831054538488388,0.7629393935203552,73.33333587646484,1753.0,1.0
750.4550979,112200.7578125,112305.453125,112921.8203125,112492.8515625,112431.3359375,112518.421875,112704.296875,112819.09375,-0.0732421875,1.010498046875,-0.011962890625,-1.9226073026657104,-0.2136230319738388,0.7019042372703552,73.33333587646484,1754.0,1.0
750.4551006,112300.4453125,112404.9609375,113021.421875,112592.5390625,112531.0234375,112618.015625,112804.25,112918.6015625,-0.072509765625,1.009521484375,-0.0087890625,-1.9836424589157104,-0.1525878757238388,0.6103515028953552,73.33333587646484,1755.0,1.0
750.4582398,112293.2890625,112397.8125,113014.2734375,112585.296875,112524.0546875,112610.953125,112797.0078125,112911.1796875,-0.073486328125,1.0107421875,-0.00927734375,-1.9226073026657104,-0.0915527269244194,0.5798339247703552,73.33333587646484,1756.0,1.0
750.458246,112252.1640625,112356.953125,112973.234375,112544.078125,112483.375,112570.3671875,112755.9765625,112870.59375,-0.07421875,1.0107421875,-0.011474609375,-1.9531248807907104,-0.1525878757238388,0.7019042372703552,73.33333587646484,1757.0,1.0
750.4601621,112326.5546875,112430.9765625,113047.3515625,112618.640625,112557.4921875,112644.5703125,112830.5390625,112944.890625,-0.075927734375,1.01025390625,-0.0107421875,-1.8310545682907104,-0.1220703050494194,0.7019042372703552,73.33333587646484,1758.0,1.0
750.4688996,112434.9140625,112539.6953125,113155.7109375,112727.2734375,112666.03125,112753.109375,112939.2578125,113053.515625,-0.0732421875,1.01025390625,-0.009521484375,-1.9836424589157104,-0.0915527269244194,0.7934569716453552,73.33333587646484,1759.0,1.0
750.4726492,112451.453125,112555.703125,113172.5234375,112743.7265625,112682.2109375,112769.1171875,112955.7109375,113069.7890625,-0.0732421875,1.012939453125,-0.010986328125,-1.9226073026657104,-0.1831054538488388,0.7324218153953552,73.33333587646484,1760.0,1.0
750.4764201,112412.203125,112516.6328125,113133.625,112704.5625,112642.9609375,112730.046875,112916.1015625,113030.8125,-0.070068359375,1.010009765625,-0.010009765625,-1.9226073026657104,-0.1220703050494194,0.6713866591453552,73.33333587646484,1761.0,1.0
750.4857962,112468.9765625,112573.9375,113190.3125,112761.6953125,112700.2734375,112787.1796875,112973.140625,113087.765625,-0.071533203125,1.010498046875,-0.00830078125,-1.9226073026657104,-0.2136230319738388,0.7324218153953552,73.33333587646484,1762.0,1.0
750.4858034,112581.5390625,112686.59375,113302.609375,112873.9921875,112812.921875,112899.828125,113085.8828125,113200.234375,-0.07373046875,1.011474609375,-0.007080078125,-1.9531248807907104,-0.2746581733226776,0.7324218153953552,73.33333587646484,1763.0,1.0
750.4889009,112618.640625,112723.4296875,113339.625,112911.09375,112849.40625,112936.84375,113122.9921875,113237.1640625,-0.073486328125,1.011962890625,-0.010498046875,-1.9531248807907104,-0.2136230319738388,0.6713866591453552,73.33333587646484,1764.0,1.0
750.4957925,112578.6796875,112683.4609375,113299.5703125,112870.859375,112809.3515625,112896.96875,113082.6640625,113197.109375,-0.07373046875,1.0107421875,-0.01220703125,-1.9836424589157104,-0.3051757514476776,0.7934569716453552,73.33333587646484,1765.0,1.0
750.4957982,112614.53125,112719.140625,113335.6015625,112906.359375,112845.46875,112932.375,113118.515625,113232.6875,-0.072509765625,1.011474609375,-0.01416015625,-1.9836424589157104,-0.2441406100988388,0.7934569716453552,73.33333587646484,1766.0,1.0
750.5013976,112725.21875,112829.640625,113446.1953125,113017.3984375,112956.15625,113043.328125,113229.1171875,113343.375,-0.072265625,1.011962890625,-0.0126953125,-1.8310545682907104,-0.1525878757238388,0.7324218153953552,73.33333587646484,1767.0,1.0
750.5107941,112782.171875,112886.4140625,113502.8828125,113074.6171875,113012.8359375,113100.1875,113286.0703125,113400.59375,-0.072265625,1.01220703125,-0.010009765625,-1.9226073026657104,-0.2136230319738388,0.8239745497703552,73.33333587646484,1768.0,1.0
750.510801,112738.09375,112842.609375,113459.25,113030.1875,112968.40625,113055.9296875,113242.171875,113356.34375,-0.07421875,1.01123046875,-0.010498046875,-1.9226073026657104,-0.0915527269244194,0.7629393935203552,73.33333587646484,1769.0,1.0
750.5126488,112745.15625,112850.296875,113466.7578125,113037.6015625,112975.6484375,113063.890625,113249.859375,113363.8515625,-0.073974609375,1.0107421875,-0.0087890625,-1.8920897245407104,-0.1525878757238388,0.6408690810203552,73.33333587646484,1770.0,1.0
750.5163976,112852.0,112956.6953125,113573.0625,113144.1796875,113082.21875,113170.8203125,113356.34375,113470.875,-0.073974609375,1.01220703125,-0.008056640625,-1.9226073026657104,-0.1831054538488388,0.5187987685203552,73.33333587646484,1771.0,1.0
750.5232384,112928.8828125,113033.7578125,113650.21875,113221.3359375,113159.375,113247.3515625,113433.40625,113547.5859375,-0.07373046875,1.012939453125,-0.00927734375,-1.9531248807907104,-0.1525878757238388,0.6713866591453552,73.33333587646484,1772.0,1.0
750.5232458,112900.09375,113004.6171875,113620.984375,113192.546875,113130.5,113218.03125,113404.171875,113518.796875,-0.07470703125,1.009765625,-0.007568359375,-2.014159917831421,-0.1831054538488388,0.7324218153953552,73.33333587646484,1773.0,1.0
750.5312517,112895.1796875,112999.515625,113615.796875,113187.6328125,113125.578125,113213.0234375,113398.984375,113513.6953125,-0.071533203125,1.009521484375,-0.00927734375,-1.9531248807907104,-0.2136230319738388,0.7324218153953552,73.33333587646484,1774.0,1.0
750.5382327,112994.6875,113099.203125,113715.6640625,113286.9609375,113225.09375,113312.4453125,113498.5,113613.3828125,-0.072998046875,1.010498046875,-0.00927734375,-2.014159917831421,-0.1831054538488388,0.7934569716453552,73.33333587646484,1775.0,1.0
750.5382383,113085.8828125,113190.2265625,113806.953125,113378.0703125,113316.2890625,113403.7265625,113589.78125,113704.3125,-0.072998046875,1.008544921875,-0.01025390625,-2.044677495956421,-0.1525878757238388,0.8239745497703552,73.33333587646484,1776.0,1.0
750.540149,113068.1796875,113172.6953125,113789.0703125,113360.71875,113298.4921875,113386.203125,113571.9921875,113686.25,-0.0703125,1.011962890625,-0.01123046875,-2.014159917831421,-0.1831054538488388,0.7019042372703552,73.33333587646484,1777.0,1.0
750.542654,113045.0234375,113149.9921875,113766.2734375,113337.7421875,113275.875,113363.40625,113549.3671875,113663.453125,-0.071044921875,1.008544921875,-0.01416015625,-1.9531248807907104,-0.1525878757238388,0.8239745497703552,73.33333587646484,1778.0,1.0
750.5513965,113133.0,113237.96875,113854.6953125,113425.71875,113363.8515625,113451.2890625,113637.4375,113751.6953125,-0.07080078125,1.010986328125,-0.01123046875,-1.9531248807907104,-0.1220703050494194,0.7629393935203552,73.33333587646484,1779.0,1.0
750.5544783,113236.890625,113341.765625,113957.875,113529.1640625,113467.65625,113554.828125,113740.96875,113855.6796875,-0.072021484375,1.010009765625,-0.011474609375,-2.014159917831421,-0.1220703050494194,0.8239745497703552,73.33333587646484,1780.0,1.0
750.5544853,113231.53125,113336.3125,113952.6875,113523.625,113462.1953125,113549.640625,113735.6015625,113850.3125,-0.073486328125,1.010498046875,-0.01025390625,-2.014159917831421,-0.2441406100988388,0.7934569716453552,73.33333587646484,1781.0,1.0
750.5601466,113191.65625,113296.3515625,113912.6328125,113483.65625,113422.234375,113509.3125,113695.5546875,113810.4375,-0.072509765625,1.01025390625,-0.01171875,-1.9226073026657104,-0.0915527269244194,0.7629393935203552,73.33333587646484,1782.0,1.0
750.5639031,113261.390625,113366.3515625,113982.9921875,113553.84375,113492.1484375,113579.59375,113765.6484375,113880.3515625,-0.072998046875,1.00927734375,-0.010986328125,-1.8310545682907104,-0.1220703050494194,0.7019042372703552,73.33333587646484,1783.0,1.0
750.5726413,113368.5859375,113473.2890625,114090.1015625,113661.1328125,113599.53125,113686.875,113872.9375,113987.5546875,-0.07275390625,1.008544921875,-0.010986328125,-1.9226073026657104,-0.1525878757238388,0.7629393935203552,73.33333587646484,1784.0,1.0
750.5769784,113385.578125,113490.6328125,114107.1796875,113678.296875,113616.6953125,113703.953125,113890.0078125,114005.078125,-0.07373046875,1.013427734375,-0.008544921875,-2.014159917831421,-0.2441406100988388,0.7629393935203552,73.33333587646484,1785.0,1.0
750.5769852,113348.3828125,113453.2578125,114070.078125,113640.921875,113579.140625,113666.765625,113852.7265625,113968.0625,-0.0732421875,1.0107421875,-0.0087890625,-1.9836424589157104,-0.2746581733226776,0.7934569716453552,73.33333587646484,1786.0,1.0
750.5832272,113404.171875,113509.140625,114125.6015625,113696.984375,113635.203125,113722.90625,113908.6953125,114023.671875,-0.07373046875,1.012939453125,-0.009765625,-2.014159917831421,-0.2746581733226776,0.7629393935203552,73.33333587646484,1787.0,1.0
750.5832334,113512.8046875,113618.2109375,114234.671875,113806.0546875,113744.1015625,113831.8046875,114017.953125,114132.484375,-0.073486328125,1.01220703125,-0.008544921875,-1.9531248807907104,-0.1831054538488388,0.8239745497703552,73.33333587646484,1788.0,1.0
750.585154,113549.3671875,113654.421875,114271.15625,113842.265625,113780.578125,113868.109375,114054.25,114169.140625,-0.073974609375,1.012451171875,-0.010009765625,-1.9836424589157104,-0.1220703050494194,0.7324218153953552,73.33333587646484,1789.0,1.0
750.5988983,113506.8984375,113612.2265625,114229.0390625,113800.0703125,113738.109375,113825.8203125,114011.6015625,114126.7578125,-0.07275390625,1.010009765625,-0.005615234375,-1.9836424589157104,-0.1525878757238388,0.6713866591453552,73.33333587646484,1790.0,1.0
750.601978,113542.3046875,113647.8984375,114264.265625,113835.4765625,113773.421875,113861.21875,114046.7421875,114161.8984375,-0.072998046875,1.0107421875,-0.008056640625,-1.9836424589157104,-0.1831054538488388,0.7629393935203552,73.33333587646484,1791.0,1.0
750.6019853,113651.6484375,113757.0625,114373.5234375,113944.7265625,113883.0390625,113970.4765625,114156.265625,114271.15625,-0.07373046875,1.010498046875,-0.011474609375,-1.9531248807907104,-0.1525878757238388,0.7629393935203552,73.33333587646484,1792.0,1.0
750.6039221,113709.140625,113814.375,114431.1953125,114002.0390625,113940.5234375,114028.1484375,114213.75,114328.8203125,-0.072265625,1.01220703125,-0.010986328125,-1.9226073026657104,-0.3662109076976776,0.7629393935203552,73.33333587646484,1793.0,1.0
750.630174,113667.7421875,113772.890625,114389.796875,113960.640625,113899.21875,113986.9296875,114172.4453125,114287.3359375,-0.0751953125,1.0126953125,-0.009765625,-1.9531248807907104,-0.3051757514476776,0.8239745497703552,73.33333587646484,1794.0,1.0
750.632646,113672.75,113777.8984375,114394.7109375,113965.5625,113903.8671875,113991.578125,114177.546875,114291.984375,-0.072509765625,1.01220703125,-0.0087890625,-2.014159917831421,-0.2441406100988388,0.7934569716453552,73.33333587646484,1795.0,1.0
750.6350077,113778.25,113883.3984375,114500.3046875,114071.1484375,114009.4609375,114096.9921875,114283.2265625,114397.75,-0.072021484375,1.009521484375,-0.011962890625,-1.9531248807907104,-0.2746581733226776,0.7934569716453552,73.33333587646484,1796.0,1.0
750.6426486,113854.78125,113960.28125,114576.921875,114147.6796875,114086.2578125,114173.96875,114359.9375,114474.734375,-0.0732421875,1.0078125,-0.01416015625,-1.9836424589157104,-0.2136230319738388,0.7934569716453552,73.33333587646484,1797.0,1.0
750.645153,113825.7265625,113931.2265625,114547.8671875,114118.984375,114057.2890625,114144.9140625,114330.875,114445.3203125,-0.07470703125,1.01123046875,-0.01123046875,-1.9836424589157104,-0.3051757514476776,0.7324218153953552,73.33333587646484,1798.0,1.0
750.6476671,113819.46875,113924.5234375,114541.34375,114112.7265625,114050.9453125,114138.3828125,114324.6171875,114439.2421875,-0.072265625,1.010009765625,-0.006591796875,-1.9531248807907104,-0.2136230319738388,0.7324218153953552,73.33333587646484,1799.0,1.0
750.6501548,113917.8203125,114023.4921875,114640.40625,114211.4296875,114149.7421875,114237.0859375,114423.3203125,114537.8515625,-0.0712890625,1.01171875,-0.008544921875,-1.9836424589157104,-0.2441406100988388,0.7934569716453552,73.33333587646484,1800.0,1.0
750.6526456,114009.640625,114115.5859375,114732.40625,114303.4296875,114241.5625,114329.265625,114515.0546875,114629.5,-0.071044921875,1.010498046875,-0.00830078125,-2.014159917831421,-0.2441406100988388,0.7324218153953552,73.33333587646484,1801.0,1.0
750.6551466,113993.8984375,114099.7578125,114716.578125,114287.515625,114225.5546875,114313.4453125,114499.3203125,114613.7578125,-0.0732421875,1.01025390625,-0.0087890625,-2.105712652206421,-0.1831054538488388,0.7629393935203552,73.33333587646484,1802.0,1.0
750.6582371,113971.375,114076.9609375,114693.78125,114264.8046875,114202.9375,114290.640625,114476.5234375,114591.2265625,-0.073974609375,1.011474609375,-0.0087890625,-2.075195074081421,-0.2136230319738388,0.6713866591453552,73.33333587646484,1803.0,1.0
750.6582427,114058.0078125,114163.328125,114780.5078125,114351.3515625,114289.5703125,114377.28125,114563.421875,114677.953125,-0.073974609375,1.010498046875,-0.010009765625,-2.075195074081421,-0.1525878757238388,0.5798339247703552,73.33333587646484,1804.0,1.0
750.6601453,114158.5859375,114264.09375,114880.7265625,114451.7578125,114389.8828125,114477.859375,114663.828125,114778.2734375,-0.074462890625,1.01171875,-0.011962890625,-1.9531248807907104,-0.0915527269244194,0.6408690810203552,73.33333587646484,1805.0,1.0
750.6632258,114156.53125,114262.03125,114878.765625,114449.609375,114387.828125,114476.0703125,114661.6796875,114776.3046875,-0.072998046875,1.01123046875,-0.009765625,-1.9531248807907104,-0.0915527269244194,0.7324218153953552,73.33333587646484,1806.0,1.0
750.663232,114117.640625,114222.875,114839.78125,114410.625,114348.9375,114437.0,114622.609375,114737.140625,-0.0712890625,1.010498046875,-0.009033203125,-2.014159917831421,-0.1220703050494194,0.5798339247703552,73.33333587646484,1807.0,1.0
750.6651524,114182.8203125,114288.3203125,114905.140625,114476.1640625,114413.9375,114502.0,114687.7890625,114802.5,-0.072021484375,1.011474609375,-0.00732421875,-2.014159917831421,-0.0610351525247097,0.5493163466453552,73.33333587646484,1808.0,1.0
750.6689071,114291.4453125,114397.21875,115014.125,114585.1484375,114523.015625,114610.9921875,114796.8671875,114911.7578125,-0.072998046875,1.010498046875,-0.0078125,-2.014159917831421,-0.0915527269244194,0.6103515028953552,73.33333587646484,1809.0,1.0
750.6782248,114308.796875,114414.46875,115031.203125,114602.5859375,114540.359375,114628.0625,114814.125,114928.921875,-0.0732421875,1.00927734375,-0.00634765625,-2.044677495956421,-0.0915527269244194,0.7324218153953552,73.33333587646484,1810.0,1.0
750.678231,114267.1328125,114372.6328125,114989.71875,114560.3828125,114498.6015625,114586.3984375,114772.28125,114886.9921875,-0.072509765625,1.00927734375,-0.011474609375,-1.9836424589157104,-0.1525878757238388,0.7629393935203552,73.33333587646484,1811.0,1.0
750.6801431,114320.7734375,114426.2734375,115043.453125,114614.2109375,114552.515625,114640.2265625,114826.3671875,114940.8125,-0.07373046875,1.010009765625,-0.010986328125,-1.9226073026657104,-0.1525878757238388,0.7019042372703552,73.33333587646484,1812.0,1.0
750.7069768,114432.890625,114538.5703125,115155.4765625,114726.6796875,114664.2734375,114752.4296875,114938.6640625,115052.8359375,-0.07421875,1.01025390625,-0.011474609375,-1.9531248807907104,-0.1220703050494194,0.6713866591453552,73.33333587646484,1813.0,1.0
750.7069844,114471.421875,114577.1953125,115194.4609375,114764.9453125,114703.1640625,114791.234375,114977.203125,115091.4609375,-0.07275390625,1.009033203125,-0.010009765625,-1.8920897245407104,-0.0915527269244194,0.7629393935203552,73.33333587646484,1814.0,1.0
750.7094739,114431.3671875,114536.9609375,115154.2265625,114725.0703125,114663.0234375,114751.09375,114937.0546875,115051.40625,-0.072998046875,1.0107421875,-0.01220703125,-2.014159917831421,-0.1220703050494194,0.6713866591453552,73.33333587646484,1815.0,1.0
750.7094779,114462.0390625,114567.8046875,115184.7109375,114755.46875,114693.6875,114781.7578125,114967.6328125,115081.8984375,-0.072021484375,1.01123046875,-0.0126953125,-1.9226073026657104,-0.1525878757238388,0.7629393935203552,73.33333587646484,1816.0,1.0
750.7113886,114570.484375,114676.6171875,115293.703125,114863.921875,114802.5,114890.4765625,115076.171875,115190.5234375,-0.07080078125,1.010009765625,-0.01123046875,-1.9531248807907104,-0.2136230319738388,0.7324218153953552,73.33333587646484,1817.0,1.0
750.7138932,114630.75,114736.0703125,115353.421875,114924.09375,114862.3125,114950.375,115136.078125,115250.609375,-0.07080078125,1.009521484375,-0.0107421875,-1.9226073026657104,-0.1831054538488388,0.7629393935203552,73.33333587646484,1818.0,1.0
750.7164017,114592.3046875,114697.890625,115314.9765625,114885.828125,114823.6875,114912.0234375,115097.9921875,115212.25,-0.072509765625,1.010009765625,-0.008544921875,-1.9531248807907104,-0.2441406100988388,0.7019042372703552,73.33333587646484,1819.0,1.0
750.7189072,114593.46875,114699.234375,115315.9609375,114887.34375,114824.9375,114913.0078125,115099.0625,115213.7734375,-0.072509765625,1.010498046875,-0.005615234375,-2.014159917831421,-0.2136230319738388,0.7324218153953552,73.33333587646484,1820.0,1.0
750.7213926,114696.1015625,114801.78125,115418.6953125,114989.984375,114927.578125,115015.6484375,115201.703125,115316.5859375,-0.070556640625,1.010986328125,-0.009033203125,-2.075195074081421,-0.1220703050494194,0.7019042372703552,73.33333587646484,1821.0,1.0
750.7238936,114773.890625,114879.8359375,115497.3671875,115067.9453125,115005.6328125,115093.96875,115280.0234375,115394.4609375,-0.07177734375,1.010498046875,-0.009033203125,-1.8615721464157104,-0.2136230319738388,0.7019042372703552,73.33333587646484,1822.0,1.0
750.7282387,114746.3515625,114852.65625,115469.4765625,115040.5859375,114978.359375,115066.7890625,115252.6640625,115367.1015625,-0.072509765625,1.01123046875,-0.010986328125,-1.8920897245407104,-0.1220703050494194,0.6408690810203552,73.33333587646484,1823.0,1.0
750.7282458,114736.515625,114842.734375,115459.375,115030.484375,114968.3515625,115056.4140625,115242.5625,115356.8203125,-0.07177734375,1.009521484375,-0.01123046875,-1.9836424589157104,-0.1831054538488388,0.6713866591453552,73.33333587646484,1824.0,1.0
