Time,FZ,C3,CZ,C4,PZ,PO7,OZ,PO8,AccX,AccY,AccZ,Gyro1,Gyro2,Gyro3,Battery,Counter,Validation
24183.8656899,912.2194213867188,-27342.80078125,-165173.234375,-170139.4375,-168760.328125,-155931.765625,-149199.78125,-202949.640625,0.5126953125,0.78857421875,0.351806640625,-1.9226073026657104,-0.1220703050494194,0.3967284858226776,60.0,41404.0,1.0
24183.8738386,-1000.1065063476562,-36270.53515625,-165073.90625,-170592.90625,-169289.078125,-157175.78125,-150629.9375,-203649.34375,0.5107421875,0.78564453125,0.348388671875,-1.9531248807907104,-0.2136230319738388,0.3967284858226776,60.0,41405.0,1.0
24183.8781878,3498.1376953125,-24982.009765625,-165858.984375,-169892.21875,-168802.53125,-155412.140625,-148964.90625,-203278.484375,0.511962890625,0.787109375,0.34814453125,-1.8920897245407104,-0.2136230319738388,0.6103515028953552,60.0,41406.0,1.0
24183.8781964,5982.57861328125,-11383.1181640625,-166056.578125,-169359.625,-168215.296875,-153948.90625,-147316.6875,-202536.859375,0.511962890625,0.784912109375,0.35009765625,-1.9226073026657104,-0.2746581733226776,0.5187987685203552,60.0,41407.0,1.0
24183.8875927,1756.1319580078125,-24008.634765625,-165322.1875,-170004.25,-168642.3125,-155539.625,-148797.53125,-202851.5625,0.51171875,0.786376953125,0.34912109375,-1.9531248807907104,-0.2746581733226776,0.4272460639476776,60.0,41408.0,1.0
24183.8906753,-1212.8951416015625,-36085.28515625,-165031.96875,-170620.796875,-169282.015625,-157196.34375,-150614.015625,-203631.109375,0.510498046875,0.786376953125,0.350830078125,-1.9226073026657104,-0.3051757514476776,0.5187987685203552,60.0,41409.0,1.0
24183.8906832,2482.92138671875,-28126.453125,-165737.484375,-170086.40625,-168962.5625,-155874.453125,-149429.734375,-203466.0625,0.510009765625,0.786376953125,0.349609375,-1.8920897245407104,-0.1831054538488388,0.4272460639476776,60.0,41410.0,1.0
24183.8925803,6059.82666015625,-11842.5810546875,-166136.046875,-169390.5625,-168271.71875,-154000.9375,-147408.328125,-202655.046875,0.509765625,0.78759765625,0.346923828125,-1.9226073026657104,-0.2136230319738388,0.4272460639476776,60.0,41411.0,1.0
24183.9044215,2609.879150390625,-20665.9765625,-165483.296875,-169878.359375,-168537.171875,-155165.546875,-148421.578125,-202775.21875,0.51025390625,0.78759765625,0.34619140625,-1.8615721464157104,-0.2746581733226776,0.3967284858226776,60.0,41412.0,1.0
24183.9044302,-1279.235107421875,-35365.2890625,-165016.140625,-170626.875,-169253.59375,-157152.34375,-150529.171875,-203594.890625,0.51025390625,0.788330078125,0.348876953125,-1.9531248807907104,-0.2746581733226776,0.4882812201976776,60.0,41413.0,1.0
24183.9069195,1428.7236328125,-30945.634765625,-165609.171875,-170274.703125,-169113.03125,-156322.65625,-149869.609375,-203636.65625,0.51123046875,0.786376953125,0.347900390625,-1.8920897245407104,-0.1831054538488388,0.4577636420726776,60.0,41414.0,1.0
24183.9069256,5874.75390625,-13299.0205078125,-166183.53125,-169456.984375,-168362.46875,-154156.234375,-147603.5,-202808.65625,0.510498046875,0.788330078125,0.34716796875,-1.9836424589157104,-0.1220703050494194,0.3662109076976776,60.0,41415.0,1.0
24183.9150844,3480.971435546875,-17514.0234375,-165654.59375,-169750.875,-168442.578125,-154805.421875,-148069.5,-202718.171875,0.509033203125,0.790771484375,0.34765625,-1.9531248807907104,-0.1525878757238388,0.4272460639476776,60.0,41416.0,1.0
24183.9194187,-1058.3104248046875,-34070.9453125,-165042.96875,-170587.265625,-169189.390625,-156988.5625,-150328.8125,-203523.8125,0.509521484375,0.787841796875,0.349853515625,-1.7700194120407104,-0.2441406100988388,0.3356933295726776,60.0,41417.0,1.0
24183.9194261,524.6401977539062,-33139.50390625,-165483.390625,-170447.34375,-169238.390625,-156709.15625,-150240.921875,-203770.40625,0.51318359375,0.7900390625,0.349365234375,-1.8310545682907104,-0.2441406100988388,0.5493163466453552,60.0,41418.0,1.0
24183.9213435,5528.123046875,-15524.3603515625,-166188.09375,-169561.421875,-168477.265625,-154402.453125,-147887.375,-202981.828125,0.51318359375,0.793212890625,0.34765625,-1.8920897245407104,-0.3051757514476776,0.4882812201976776,60.0,41419.0,1.0
24183.9350832,4301.1015625,-14734.6279296875,-165814.28125,-169640.0,-168366.765625,-154498.484375,-147778.46875,-202688.671875,0.50244140625,0.776123046875,0.349365234375,-2.044677495956421,-0.2136230319738388,0.3967284858226776,60.0,41420.0,1.0
24183.9381772,-635.3259887695312,-32118.296875,-165100.1875,-170506.171875,-169096.671875,-156738.9375,-150044.234375,-203431.640625,0.509765625,0.78125,0.349365234375,-1.8615721464157104,-0.5187987685203552,0.2746581733226776,60.0,41421.0,1.0
24183.9381834,-267.3268737792969,-34667.46875,-165367.953125,-170577.703125,-169330.921875,-157017.796875,-150525.328125,-203868.21875,0.520751953125,0.799560546875,0.35107421875,-1.8005369901657104,-0.3967284858226776,0.2441406100988388,60.0,41422.0,1.0
24183.9400869,4908.80078125,-18289.44921875,-166158.3125,-169701.25,-168619.953125,-154743.734375,-148260.109375,-203180.9375,0.5048828125,0.780517578125,0.347900390625,-1.8920897245407104,-0.1220703050494194,0.4577636420726776,60.0,41423.0,1.0
24183.9438433,4971.74365234375,-12567.3134765625,-165967.703125,-169570.0,-168326.25,-154271.03125,-147574.453125,-202697.96875,0.503662109375,0.77978515625,0.349609375,-1.9226073026657104,-0.2441406100988388,0.4577636420726776,60.0,41424.0,1.0
24183.9575886,-22.530559539794922,-29601.935546875,-165197.28125,-170415.609375,-168991.796875,-156419.484375,-149699.203125,-203326.859375,0.5185546875,0.797119140625,0.3486328125,-1.8310545682907104,-0.3967284858226776,0.3967284858226776,60.0,41425.0,1.0
24183.9606744,-882.8939208984375,-35599.984375,-165274.265625,-170673.1875,-169392.96875,-157231.828125,-150711.65625,-203928.109375,0.51220703125,0.790283203125,0.34912109375,-1.9836424589157104,-0.1220703050494194,0.3967284858226776,60.0,41426.0,1.0
24183.960683,4093.23046875,-21593.931640625,-166089.109375,-169862.0,-168777.578125,-155152.5,-148691.859375,-203385.15625,0.506103515625,0.778564453125,0.346923828125,-1.9836424589157104,-0.1525878757238388,0.5187987685203552,60.0,41427.0,1.0
24183.9625857,5453.37890625,-11347.8916015625,-166101.984375,-169526.71875,-168316.875,-154132.265625,-147467.515625,-202744.015625,0.51220703125,0.788330078125,0.346923828125,-1.8920897245407104,-0.2441406100988388,0.4577636420726776,60.0,41428.0,1.0
24183.9650994,751.8233032226562,-26598.755859375,-165327.375,-170282.65625,-168872.53125,-156041.296875,-149305.71875,-203224.84375,0.510986328125,0.788330078125,0.34765625,-1.9531248807907104,-0.2136230319738388,0.4272460639476776,60.0,41429.0,1.0
24183.973838,-1270.830810546875,-35924.08203125,-165207.03125,-170744.265625,-169414.078125,-157332.328125,-150781.125,-203936.609375,0.5068359375,0.78369140625,0.346435546875,-1.9836424589157104,-0.2136230319738388,0.4577636420726776,60.0,41430.0,1.0
24183.9781779,3125.131591796875,-24950.5390625,-165986.921875,-170060.3125,-168941.375,-155601.859375,-149156.234375,-203583.28125,0.51220703125,0.791015625,0.350830078125,-1.9226073026657104,-0.3051757514476776,0.2746581733226776,60.0,41431.0,1.0
24183.9781844,5716.14599609375,-11052.4912109375,-166206.59375,-169512.859375,-168343.6875,-154094.8125,-147468.6875,-202834.140625,0.5146484375,0.7919921875,0.348388671875,-1.8920897245407104,-0.2746581733226776,0.2746581733226776,60.0,41432.0,1.0
24183.9867763,1580.8048095703125,-23372.236328125,-165479.8125,-170142.375,-168759.875,-155655.765625,-148913.5,-203133.734375,0.506591796875,0.7841796875,0.34765625,-1.8310545682907104,-0.1831054538488388,0.3356933295726776,60.0,41433.0,1.0
24183.9867846,-1488.89453125,-35706.82421875,-165169.03125,-170771.984375,-169410.046875,-157356.46875,-150770.296875,-203923.828125,0.510986328125,0.7900390625,0.34716796875,-1.8310545682907104,-0.3051757514476776,0.4272460639476776,60.0,41434.0,1.0
24183.9926086,2127.528564453125,-28131.638671875,-165867.125,-170257.0,-169104.984375,-156069.0,-149626.703125,-203776.125,0.51220703125,0.7900390625,0.346923828125,-1.9531248807907104,-0.3662109076976776,0.4577636420726776,60.0,41435.0,1.0
24183.9950989,5812.4375,-11647.8525390625,-166282.765625,-169548.09375,-168404.21875,-154154.0,-147569.625,-202955.734375,0.507080078125,0.783447265625,0.349609375,-1.9531248807907104,-0.2746581733226776,0.4577636420726776,60.0,41436.0,1.0
24183.9988353,2480.239013671875,-19994.26171875,-165638.6875,-170006.125,-168650.265625,-155269.4375,-148528.328125,-203055.421875,0.5107421875,0.787109375,0.345947265625,-1.9531248807907104,-0.3051757514476776,0.4577636420726776,60.0,41437.0,1.0
24184.0056794,-1482.8148193359375,-34919.41796875,-165156.59375,-170765.28125,-169372.234375,-157286.46875,-150661.140625,-203878.578125,0.51171875,0.789306640625,0.34619140625,-1.8615721464157104,-0.2746581733226776,0.3356933295726776,60.0,41438.0,1.0
24184.0056874,1142.2635498046875,-30826.09765625,-165736.9375,-170446.1875,-169250.375,-156508.359375,-150057.640625,-203937.765625,0.51025390625,0.78564453125,0.346923828125,-1.9226073026657104,-0.2441406100988388,0.4272460639476776,60.0,41439.0,1.0
24184.0113337,5656.2431640625,-13091.4169921875,-166326.578125,-169615.859375,-168495.234375,-154316.0,-147771.765625,-203110.046875,0.510009765625,0.789306640625,0.348876953125,-1.8920897245407104,-0.3356933295726776,0.3356933295726776,60.0,41440.0,1.0
24184.0206771,3354.10302734375,-16815.576171875,-165811.15625,-169880.953125,-168557.90625,-154915.203125,-148184.5625,-203004.359375,0.511962890625,0.7900390625,0.3466796875,-1.8615721464157104,-0.2746581733226776,0.4577636420726776,60.0,41441.0,1.0
24184.0206859,-1238.3760986328125,-33548.98828125,-165187.359375,-170726.5625,-169306.15625,-157113.90625,-150452.90625,-203807.15625,0.50927734375,0.785400390625,0.3466796875,-1.9226073026657104,-0.1525878757238388,0.4272460639476776,60.0,41442.0,1.0
24184.0231697,220.56703186035156,-32971.23828125,-165609.796875,-170607.296875,-169372.9375,-156888.25,-150421.25,-204072.0625,0.50927734375,0.785888671875,0.345458984375,-1.9531248807907104,-0.2136230319738388,0.4577636420726776,60.0,41443.0,1.0
24184.0231774,5241.57373046875,-15391.322265625,-166329.359375,-169715.8125,-168617.453125,-154576.359375,-148071.546875,-203293.953125,0.51220703125,0.787109375,0.348388671875,-1.9226073026657104,-0.2746581733226776,0.5493163466453552,60.0,41444.0,1.0
24184.0313373,4149.46728515625,-14110.9248046875,-165974.9375,-169778.40625,-168489.609375,-154615.78125,-147905.96875,-202979.515625,0.511474609375,0.784423828125,0.347412109375,-1.9531248807907104,-0.2746581733226776,0.5187987685203552,60.0,41445.0,1.0
24184.0350935,-797.1526489257812,-31555.92578125,-165249.21875,-170649.9375,-169213.078125,-156855.609375,-150166.0,-203711.84375,0.51220703125,0.7861328125,0.34912109375,-1.9531248807907104,-0.3051757514476776,0.4577636420726776,60.0,41446.0,1.0
24184.0394111,-564.783935546875,-34462.90625,-165498.3125,-170738.8125,-169462.53125,-157181.5,-150696.09375,-204163.796875,0.51123046875,0.78857421875,0.346435546875,-1.8310545682907104,-0.2136230319738388,0.3967284858226776,60.0,41447.0,1.0
24184.0394173,4578.08447265625,-18330.3984375,-166293.5,-169861.375,-168760.953125,-154921.203125,-148451.796875,-203490.375,0.5087890625,0.785400390625,0.34423828125,-1.9226073026657104,-0.3051757514476776,0.3662109076976776,60.0,41448.0,1.0
24184.0525837,4758.77587890625,-12158.09765625,-166124.15625,-169703.84375,-168451.34375,-154395.9375,-147714.015625,-202994.4375,0.50830078125,0.7861328125,0.34619140625,-1.8615721464157104,-0.2746581733226776,0.3356933295726776,60.0,41449.0,1.0
24184.0556687,-219.4047393798828,-29033.486328125,-165349.0,-170540.875,-169106.953125,-156531.15625,-149818.03125,-203614.921875,0.513916015625,0.7890625,0.3486328125,-1.8005369901657104,-0.1831054538488388,0.4882812201976776,60.0,41450.0,1.0
24184.0556758,-1187.682373046875,-35327.828125,-165407.125,-170838.6875,-169522.703125,-157393.03125,-150878.21875,-204221.375,0.5107421875,0.784912109375,0.351318359375,-1.9226073026657104,-0.2746581733226776,0.4882812201976776,60.0,41451.0,1.0
24184.0694201,3756.7919921875,-21624.0625,-166223.40625,-170033.84375,-168921.890625,-155340.515625,-148891.6875,-203698.609375,0.509033203125,0.783447265625,0.34619140625,-1.9836424589157104,-0.3967284858226776,0.3967284858226776,60.0,41452.0,1.0
24184.0694288,5252.0341796875,-10967.912109375,-166253.796875,-169658.875,-168445.34375,-154267.015625,-147616.65625,-203048.078125,0.509033203125,0.784423828125,0.344970703125,-1.9531248807907104,-0.2746581733226776,0.3051757514476776,60.0,41453.0,1.0
24184.071923,565.9461669921875,-25981.7578125,-165479.265625,-170412.484375,-168990.109375,-156156.71875,-149428.03125,-203512.375,0.509521484375,0.7880859375,0.3486328125,-1.8920897245407104,-0.3356933295726776,0.3967284858226776,60.0,41454.0,1.0
24184.0719314,-1573.2052001953125,-35596.046875,-165340.875,-170900.28125,-169545.953125,-157499.703125,-150951.171875,-204235.953125,0.510986328125,0.790283203125,0.34521484375,-1.8310545682907104,-0.3662109076976776,0.4882812201976776,60.0,41455.0,1.0
24184.0738344,2805.501708984375,-24935.517578125,-166118.890625,-170222.671875,-169086.125,-155794.078125,-149357.140625,-203899.421875,0.510498046875,0.788818359375,0.34375,-1.8005369901657104,-0.2441406100988388,0.3967284858226776,60.0,41456.0,1.0
24184.0826707,5520.43408203125,-10686.458984375,-166356.796875,-169658.15625,-168473.6875,-154233.921875,-147620.5,-203134.625,0.508056640625,0.786376953125,0.3447265625,-1.8920897245407104,-0.3356933295726776,0.4272460639476776,60.0,41457.0,1.0
24184.086783,1434.4456787109375,-22667.708984375,-165635.375,-170274.4375,-168870.03125,-155752.5,-149018.109375,-203413.40625,0.5107421875,0.78759765625,0.34716796875,-1.9531248807907104,-0.3356933295726776,0.4577636420726776,60.0,41458.0,1.0
24184.0867917,-1731.27685546875,-35310.83984375,-165309.390625,-170914.953125,-169528.953125,-157488.34375,-150904.859375,-204209.21875,0.510009765625,0.787353515625,0.34912109375,-1.9836424589157104,-0.3051757514476776,0.5187987685203552,60.0,41459.0,1.0
24184.0944303,1796.0968017578125,-28047.775390625,-165994.796875,-170413.015625,-169242.234375,-156249.96875,-149814.71875,-204081.09375,0.509033203125,0.782958984375,0.345458984375,-1.9531248807907104,-0.2136230319738388,0.4882812201976776,60.0,41460.0,1.0
24184.0944363,5571.21728515625,-11349.412109375,-166428.59375,-169687.65625,-168532.875,-154297.859375,-147726.796875,-203256.578125,0.509521484375,0.78564453125,0.350830078125,-1.8920897245407104,-0.2746581733226776,0.4577636420726776,60.0,41461.0,1.0
24184.1075841,2326.637939453125,-19261.3046875,-165800.515625,-170131.734375,-168758.546875,-155358.40625,-148627.21875,-203334.8125,0.51220703125,0.789306640625,0.34814453125,-1.8920897245407104,-0.2746581733226776,0.3051757514476776,60.0,41462.0,1.0
24184.1112647,-1705.527587890625,-34446.1875,-165303.5,-170898.578125,-169483.1875,-157393.84375,-150773.875,-204156.109375,0.51220703125,0.788330078125,0.3505859375,-1.9226073026657104,-0.3051757514476776,0.4272460639476776,60.0,41463.0,1.0
24184.1112725,770.5987548828125,-30724.26171875,-165866.046875,-170596.65625,-169385.109375,-156679.828125,-150236.8125,-204241.21875,0.51171875,0.789306640625,0.350341796875,-1.9836424589157104,-0.2441406100988388,0.3662109076976776,60.0,41464.0,1.0
24184.1112769,5326.51025390625,-12997.00390625,-166466.953125,-169760.4375,-168628.1875,-154471.21875,-147942.1875,-203413.046875,0.510986328125,0.787109375,0.34765625,-1.9531248807907104,-0.3356933295726776,0.3967284858226776,60.0,41465.0,1.0
24184.1138342,3158.6591796875,-16220.3935546875,-165967.4375,-170010.5,-168671.09375,-155015.96875,-148297.84375,-203285.015625,0.5107421875,0.7861328125,0.347412109375,-2.044677495956421,-0.3356933295726776,0.3967284858226776,60.0,41466.0,1.0
24184.1175839,-1458.7642822265625,-33036.41796875,-165334.875,-170858.171875,-169418.71875,-157224.234375,-150569.9375,-204085.03125,0.509521484375,0.78466796875,0.345947265625,-1.9836424589157104,-0.2746581733226776,0.4882812201976776,60.0,41467.0,1.0
24184.1319342,-129.81893920898438,-32823.71875,-165740.078125,-170766.625,-169507.765625,-157063.03125,-150603.46875,-204372.5625,0.5126953125,0.78759765625,0.349365234375,-1.8615721464157104,-0.2136230319738388,0.4577636420726776,60.0,41468.0,1.0
24184.1319426,4912.37744140625,-15380.0576171875,-166466.765625,-169877.015625,-168754.78125,-154748.828125,-148256.171875,-203598.5625,0.51171875,0.78662109375,0.350830078125,-1.8920897245407104,-0.2136230319738388,0.4577636420726776,60.0,41469.0,1.0
24184.1344126,3955.99072265625,-13594.15234375,-166130.78125,-169909.390625,-168608.15625,-154730.9375,-148029.984375,-203269.09375,0.511474609375,0.78466796875,0.346435546875,-1.8920897245407104,-0.2746581733226776,0.3662109076976776,60.0,41470.0,1.0
24184.1344183,-977.12890625,-30997.310546875,-165402.5625,-170771.453125,-169323.140625,-156954.578125,-150268.1875,-203991.0625,0.5126953125,0.786865234375,0.34765625,-1.8920897245407104,-0.3662109076976776,0.3356933295726776,60.0,41471.0,1.0
24184.1506604,-874.5791015625,-34242.60546875,-165627.421875,-170890.890625,-169592.96875,-157347.703125,-150862.921875,-204460.265625,0.51171875,0.787109375,0.345703125,-1.9531248807907104,-0.3051757514476776,0.3051757514476776,60.0,41472.0,1.0
24184.1506668,4253.44775390625,-18366.25,-166426.8125,-170020.515625,-168902.65625,-155106.71875,-148643.484375,-203801.15625,0.509765625,0.784423828125,0.346923828125,-1.8920897245407104,-0.2746581733226776,0.3356933295726776,60.0,41473.0,1.0
24184.1537669,4572.8095703125,-11681.6484375,-166280.09375,-169839.828125,-168576.0625,-154523.421875,-147849.28125,-203288.953125,0.508544921875,0.78515625,0.348876953125,-1.8005369901657104,-0.2136230319738388,0.2746581733226776,60.0,41474.0,1.0
24184.153775,-376.6716003417969,-28386.806640625,-165503.234375,-170672.203125,-169220.0625,-156636.03125,-149926.484375,-203892.4375,0.51025390625,0.786376953125,0.34521484375,-1.8920897245407104,-0.2746581733226776,0.3662109076976776,60.0,41475.0,1.0
24184.1537789,-1466.542724609375,-35035.64453125,-165539.796875,-170993.171875,-169651.625,-157550.390625,-151038.609375,-204512.484375,0.510009765625,0.78564453125,0.346435546875,-1.8310545682907104,-0.2441406100988388,0.4272460639476776,60.0,41476.0,1.0
24184.156343,3387.45166015625,-21621.916015625,-166354.828125,-170197.28125,-169065.390625,-155527.203125,-149090.53125,-204008.21875,0.50927734375,0.787109375,0.346923828125,-1.8310545682907104,-0.3356933295726776,0.3662109076976776,60.0,41477.0,1.0
24184.1600821,5021.185546875,-10449.1728515625,-166411.609375,-169795.75,-168570.421875,-154388.953125,-147752.28125,-203339.734375,0.509765625,0.789306640625,0.347900390625,-1.8920897245407104,-0.3356933295726776,0.3967284858226776,60.0,41478.0,1.0
24184.1663348,411.36151123046875,-25206.421875,-165643.15625,-170532.375,-169094.703125,-156230.75,-149510.734375,-203780.59375,0.51171875,0.788818359375,0.349609375,-1.8920897245407104,-0.3662109076976776,0.3967284858226776,60.0,41479.0,1.0
24184.1725848,-1855.01611328125,-35237.6171875,-165480.515625,-171042.265625,-169663.515625,-157625.140625,-151083.21875,-204516.6875,0.51123046875,0.786376953125,0.348388671875,-2.014159917831421,-0.3662109076976776,0.3967284858226776,60.0,41480.0,1.0
24184.1794109,2420.51513671875,-24973.6953125,-166246.203125,-170385.484375,-169227.03125,-155982.109375,-149556.328125,-204206.171875,0.51171875,0.78662109375,0.34765625,-1.8920897245407104,-0.3051757514476776,0.3662109076976776,60.0,41481.0,1.0
24184.1794171,5265.087890625,-10425.837890625,-166505.84375,-169797.890625,-168604.21875,-154377.515625,-147779.640625,-203435.03125,0.509765625,0.78564453125,0.3466796875,-1.8615721464157104,-0.3356933295726776,0.3051757514476776,60.0,41482.0,1.0
24184.1813287,1276.642333984375,-21976.4140625,-165790.671875,-170397.734375,-168980.359375,-155847.8125,-149124.5,-203691.8125,0.508544921875,0.784912109375,0.3466796875,-1.8920897245407104,-0.2441406100988388,0.3967284858226776,60.0,41483.0,1.0
24184.1925525,-1972.6756591796875,-34891.1640625,-165445.65625,-171058.09375,-169645.28125,-157617.09375,-151040.765625,-204489.953125,0.510498046875,0.784912109375,0.348876953125,-1.8310545682907104,-0.3051757514476776,0.3967284858226776,60.0,41484.0,1.0
24184.195516,1425.862548828125,-28012.28125,-166118.171875,-170576.8125,-169381.078125,-156438.796875,-150013.203125,-204385.4375,0.5126953125,0.788330078125,0.34814453125,-1.8615721464157104,-0.2746581733226776,0.3967284858226776,60.0,41485.0,1.0
24184.1955245,5283.86328125,-11159.421875,-166570.296875,-169834.015625,-168665.734375,-154454.234375,-147897.5625,-203557.171875,0.512939453125,0.78662109375,0.349365234375,-1.8005369901657104,-0.2136230319738388,0.4577636420726776,60.0,41486.0,1.0
24184.2013366,2164.3642578125,-18614.443359375,-165954.296875,-170262.8125,-168871.640625,-155460.765625,-148741.390625,-203613.3125,0.510009765625,0.785888671875,0.34912109375,-1.9836424589157104,-0.1831054538488388,0.4577636420726776,60.0,41487.0,1.0
24184.2038318,-1913.3988037109375,-33988.2421875,-165443.6875,-171043.6875,-169599.59375,-157517.75,-150904.328125,-204437.015625,0.510986328125,0.787841796875,0.348876953125,-1.9531248807907104,-0.2441406100988388,0.4272460639476776,60.0,41488.0,1.0
24184.2075893,442.7433776855469,-30646.2109375,-165987.28125,-170758.578125,-169522.34375,-156866.421875,-150431.625,-204546.71875,0.51025390625,0.788330078125,0.35009765625,-1.9226073026657104,-0.2136230319738388,0.4577636420726776,60.0,41489.0,1.0
24184.211338,5069.46533203125,-12865.9326171875,-166606.15625,-169910.8125,-168766.140625,-154639.390625,-148124.03125,-203721.9375,0.5107421875,0.786376953125,0.34765625,-1.8920897245407104,-0.3051757514476776,0.3662109076976776,60.0,41490.0,1.0
24184.2200816,3019.989013671875,-15571.74609375,-166120.9375,-170142.5625,-168787.5,-155125.046875,-148418.8125,-203570.484375,0.509033203125,0.785400390625,0.34912109375,-1.8920897245407104,-0.2746581733226776,0.5187987685203552,60.0,41491.0,1.0
24184.2231731,-1650.363525390625,-32508.916015625,-165474.796875,-170995.6875,-169531.28125,-157342.15625,-150694.21875,-204365.3125,0.51220703125,0.787841796875,0.3447265625,-1.8920897245407104,-0.2441406100988388,0.3356933295726776,60.0,41492.0,1.0
24184.2231814,-463.9328308105469,-32666.986328125,-165864.53125,-170917.71875,-169640.09375,-157233.984375,-150783.53125,-204673.953125,0.51123046875,0.7880859375,0.347900390625,-1.9531248807907104,-0.3662109076976776,0.3662109076976776,60.0,41493.0,1.0
24184.2288318,4557.87841796875,-15324.53515625,-166605.078125,-170024.09375,-168894.4375,-154917.265625,-148442.6875,-203910.6875,0.509765625,0.787353515625,0.347412109375,-1.8920897245407104,-0.3051757514476776,0.3662109076976776,60.0,41494.0,1.0
24184.2381689,3753.126220703125,-12994.052734375,-166286.171875,-170040.28125,-168725.90625,-154834.75,-148152.203125,-203554.75,0.5107421875,0.787353515625,0.344482421875,-1.8310545682907104,-0.2746581733226776,0.3662109076976776,60.0,41495.0,1.0
24184.2381766,-1182.7650146484375,-30423.85546875,-165550.890625,-170911.734375,-169438.21875,-157064.203125,-150391.9375,-204272.78125,0.51123046875,0.787841796875,0.34716796875,-1.8920897245407104,-0.3356933295726776,0.4272460639476776,60.0,41496.0,1.0
24184.252517,-1185.3577880859375,-34010.50390625,-165760.28125,-171049.140625,-169724.3125,-157508.90625,-151039.15625,-204759.328125,0.50927734375,0.78515625,0.346923828125,-1.9531248807907104,-0.1831054538488388,0.3967284858226776,60.0,41497.0,1.0
24184.2525253,3942.3115234375,-18350.068359375,-166561.546875,-170181.90625,-169042.40625,-155280.609375,-148836.875,-204108.71875,0.509765625,0.78662109375,0.34716796875,-1.9226073026657104,-0.2441406100988388,0.3662109076976776,60.0,41498.0,1.0
24184.2525292,4405.61865234375,-11153.431640625,-166430.375,-169977.421875,-168694.703125,-154639.921875,-147984.203125,-203576.84375,0.510986328125,0.787841796875,0.34765625,-1.9226073026657104,-0.3051757514476776,0.2746581733226776,60.0,41499.0,1.0
24184.2550905,-518.4710693359375,-27650.896484375,-165654.421875,-170801.125,-169327.078125,-156733.296875,-150035.28125,-204171.84375,0.5107421875,0.787841796875,0.3466796875,-2.014159917831421,-0.3051757514476776,0.3967284858226776,60.0,41500.0,1.0
24184.2576,-1738.25048828125,-34700.01171875,-165674.171875,-171140.703125,-169775.1875,-157700.859375,-151195.875,-204808.6875,0.511474609375,0.787109375,0.34814453125,-1.8920897245407104,-0.2746581733226776,0.3662109076976776,60.0,41501.0,1.0
24184.2600953,3078.103515625,-21397.326171875,-166482.421875,-170356.78125,-169202.984375,-155711.5625,-149282.03125,-204316.953125,0.510498046875,0.787841796875,0.3486328125,-1.8005369901657104,-0.3051757514476776,0.4272460639476776,60.0,41502.0,1.0
24184.2625789,4787.20751953125,-9903.7900390625,-166554.65625,-169941.03125,-168697.5625,-154535.140625,-147907.3125,-203638.171875,0.509765625,0.789794921875,0.35107421875,-1.8615721464157104,-0.2136230319738388,0.3662109076976776,60.0,41503.0,1.0
24184.2688339,207.0665740966797,-24516.646484375,-165788.4375,-170670.78125,-169211.125,-156356.1875,-149640.90625,-204070.0,0.509033203125,0.788818359375,0.351318359375,-1.8310545682907104,-0.1831054538488388,0.3662109076976776,60.0,41504.0,1.0
24184.2731796,-2142.548828125,-34868.3671875,-165613.203125,-171196.671875,-169791.09375,-157788.296875,-151248.8125,-204815.84375,0.509521484375,0.787353515625,0.34765625,-1.8005369901657104,-0.1220703050494194,0.3967284858226776,60.0,41505.0,1.0
24184.2731877,2064.138916015625,-24815.98046875,-166376.109375,-170549.359375,-169368.203125,-156171.203125,-149751.6875,-204516.953125,0.509765625,0.785888671875,0.345458984375,-1.8005369901657104,-0.1525878757238388,0.3356933295726776,60.0,41506.0,1.0
24184.2813342,4992.30712890625,-9923.0126953125,-166653.09375,-169945.59375,-168735.296875,-154524.234375,-147936.1875,-203734.109375,0.508544921875,0.785888671875,0.34716796875,-1.8005369901657104,-0.3051757514476776,0.3662109076976776,60.0,41507.0,1.0
24184.2856658,1068.681640625,-21188.560546875,-165945.703125,-170535.5,-169096.9375,-155959.03125,-149240.90625,-203977.203125,0.511474609375,0.785888671875,0.347412109375,-1.8920897245407104,-0.2746581733226776,0.3967284858226776,60.0,41508.0,1.0
24184.2856738,-2291.232666015625,-34461.921875,-165583.96875,-171213.828125,-169773.21875,-157773.109375,-151197.40625,-204789.015625,0.512939453125,0.786376953125,0.34814453125,-1.8920897245407104,-0.3051757514476776,0.5187987685203552,60.0,41509.0,1.0
24184.2913267,1019.954833984375,-27886.841796875,-166252.015625,-170737.5625,-169524.3125,-156626.015625,-150205.703125,-204700.6875,0.5107421875,0.786376953125,0.34814453125,-2.014159917831421,-0.2441406100988388,0.4272460639476776,60.0,41510.0,1.0
24184.3044182,4944.6533203125,-10842.02734375,-166719.796875,-169981.09375,-168805.203125,-154612.65625,-148066.09375,-203868.21875,0.511474609375,0.78564453125,0.348876953125,-1.9531248807907104,-0.3662109076976776,0.4577636420726776,60.0,41511.0,1.0
24184.3044268,1920.9090576171875,-17930.927734375,-166115.21875,-170394.421875,-168992.15625,-155571.453125,-148860.296875,-203905.234375,0.512939453125,0.787353515625,0.349365234375,-1.9226073026657104,-0.3356933295726776,0.3967284858226776,60.0,41512.0,1.0
24184.3069168,-2201.736328125,-33514.20703125,-165593.625,-171183.25,-169719.21875,-157642.390625,-151034.234375,-204727.421875,0.51171875,0.78759765625,0.34765625,-2.014159917831421,-0.3356933295726776,0.3967284858226776,60.0,41513.0,1.0
24184.3069246,32.09710693359375,-30511.7421875,-166118.34375,-170920.578125,-169661.28125,-157047.75,-150619.109375,-204852.765625,0.509521484375,0.786865234375,0.346923828125,-1.9836424589157104,-0.3662109076976776,0.3051757514476776,60.0,41514.0,1.0
24184.3088325,4700.66162109375,-12711.9736328125,-166748.140625,-170065.40625,-168905.4375,-154807.109375,-148303.03125,-204026.90625,0.511474609375,0.7880859375,0.346435546875,-1.8310545682907104,-0.3356933295726776,0.3662109076976776,60.0,41515.0,1.0
24184.3125828,2783.328857421875,-14932.84375,-166280.890625,-170274.34375,-168906.515625,-155234.484375,-148536.5625,-203856.328125,0.51171875,0.7890625,0.34765625,-1.9531248807907104,-0.2136230319738388,0.4882812201976776,60.0,41516.0,1.0
24184.3238278,-1894.6234130859375,-31968.62890625,-165627.953125,-171129.25,-169644.296875,-157450.96875,-150807.140625,-204648.015625,0.509521484375,0.786865234375,0.349853515625,-1.9226073026657104,-0.3356933295726776,0.3662109076976776,60.0,41517.0,1.0
24184.3337554,-834.5247802734375,-32473.8671875,-165997.203125,-171077.484375,-169772.859375,-157406.796875,-150958.953125,-204975.609375,0.509765625,0.786865234375,0.349853515625,-1.8615721464157104,-0.2746581733226776,0.3662109076976776,60.0,41518.0,1.0
24184.3337618,4225.1953125,-15306.8330078125,-166738.5625,-170184.3125,-169032.65625,-155098.21875,-148629.09375,-204215.03125,0.51025390625,0.78662109375,0.34716796875,-1.8615721464157104,-0.3051757514476776,0.4272460639476776,60.0,41519.0,1.0
24184.3337653,3531.128662109375,-12539.6865234375,-166437.890625,-170176.984375,-168847.859375,-154965.28125,-148286.9375,-203845.234375,0.511962890625,0.786376953125,0.346923828125,-1.9226073026657104,-0.2441406100988388,0.3967284858226776,60.0,41520.0,1.0
24184.3369154,-1401.5438232421875,-29862.111328125,-165699.03125,-171043.6875,-169551.3125,-157183.640625,-150509.140625,-204557.1875,0.513427734375,0.787841796875,0.348388671875,-1.8920897245407104,-0.2441406100988388,0.3662109076976776,60.0,41521.0,1.0
24184.3369234,-1527.607666015625,-33764.27734375,-165888.75,-171200.15625,-169853.5,-157680.125,-151206.96875,-205058.3125,0.511962890625,0.78662109375,0.34765625,-1.8310545682907104,-0.2441406100988388,0.4577636420726776,60.0,41522.0,1.0
24184.3388321,3552.67578125,-18401.38671875,-166691.09375,-170336.125,-169182.953125,-155470.421875,-149029.015625,-204416.71875,0.5107421875,0.786865234375,0.347412109375,-1.8920897245407104,-0.2441406100988388,0.3356933295726776,60.0,41523.0,1.0
24184.3500832,4160.5537109375,-10729.9111328125,-166583.890625,-170109.125,-168820.046875,-154769.296875,-148119.5625,-203869.015625,0.510986328125,0.7880859375,0.34765625,-1.8615721464157104,-0.3051757514476776,0.4272460639476776,60.0,41524.0,1.0
24184.3531666,-711.5007934570312,-27077.44140625,-165809.359375,-170929.609375,-169440.171875,-156835.671875,-150140.25,-204451.234375,0.51220703125,0.7880859375,0.349609375,-1.8005369901657104,-0.2746581733226776,0.5187987685203552,60.0,41525.0,1.0
24184.353175,-2043.4859619140625,-34418.46875,-165806.59375,-171289.65625,-169900.359375,-157850.265625,-151348.3125,-205098.71875,0.51123046875,0.787109375,0.34619140625,-1.7700194120407104,-0.3051757514476776,0.4272460639476776,60.0,41526.0,1.0
24184.3588276,2704.29296875,-21596.79296875,-166609.90625,-170512.703125,-169344.15625,-155895.28125,-149474.796875,-204621.828125,0.509765625,0.785888671875,0.34912109375,-1.9226073026657104,-0.2746581733226776,0.3967284858226776,60.0,41527.0,1.0
24184.3631664,4562.52783203125,-9777.8154296875,-166700.75,-170074.609375,-168825.421875,-154671.046875,-148055.8125,-203930.265625,0.509765625,0.785888671875,0.346923828125,-1.9226073026657104,-0.3051757514476776,0.3662109076976776,60.0,41528.0,1.0
24184.3631744,75.90652465820312,-23974.392578125,-165943.296875,-170796.125,-169323.328125,-156455.15625,-149749.09375,-204348.953125,0.510498046875,0.787109375,0.349609375,-1.8310545682907104,-0.2136230319738388,0.3051757514476776,60.0,41529.0,1.0
24184.3663361,-2367.8544921875,-34528.6171875,-165749.546875,-171340.171875,-169913.140625,-157930.453125,-151395.796875,-205106.40625,0.51025390625,0.7880859375,0.3486328125,-1.9226073026657104,-0.3051757514476776,0.3967284858226776,60.0,41530.0,1.0
24184.3750788,1740.5750732421875,-24916.294921875,-166501.8125,-170706.359375,-169510.0,-156362.703125,-149950.34375,-204826.484375,0.51171875,0.78857421875,0.34619140625,-1.8005369901657104,-0.3051757514476776,0.3967284858226776,60.0,41531.0,1.0
24184.3794642,4769.23681640625,-9813.220703125,-166799.1875,-170082.65625,-168868.515625,-154675.0625,-148098.28125,-204034.78125,0.509765625,0.784423828125,0.347900390625,-1.8920897245407104,-0.1525878757238388,0.3967284858226776,60.0,41532.0,1.0
24184.3794707,956.0288696289062,-20649.34765625,-166103.0625,-170657.90625,-169211.5625,-156063.109375,-149352.671875,-204260.890625,0.509765625,0.787841796875,0.350830078125,-1.7700194120407104,-0.2746581733226776,0.4272460639476776,60.0,41533.0,1.0
24184.403856,-2463.69873046875,-34081.31640625,-165723.890625,-171351.34375,-169891.328125,-157907.21875,-151334.90625,-205077.984375,0.512939453125,0.7900390625,0.35009765625,-1.8005369901657104,-0.3051757514476776,0.4272460639476776,60.0,41534.0,1.0
24184.4088471,737.5181884765625,-27940.666015625,-166376.46875,-170897.0625,-169663.25,-156817.875,-150403.640625,-205008.78125,0.509765625,0.788818359375,0.347900390625,-1.8005369901657104,-0.2746581733226776,0.3967284858226776,60.0,41535.0,1.0
24184.4113474,4740.62646484375,-10811.271484375,-166860.703125,-170130.484375,-168938.15625,-154772.0625,-148238.03125,-204165.671875,0.506591796875,0.784423828125,0.349609375,-1.8310545682907104,-0.3051757514476776,0.4882812201976776,60.0,41536.0,1.0
24184.41383,1848.22119140625,-17291.84765625,-166269.359375,-170520.578125,-169102.125,-155672.75,-148971.609375,-204183.109375,0.51025390625,0.785888671875,0.345458984375,-1.8920897245407104,-0.3662109076976776,0.3967284858226776,60.0,41537.0,1.0
24184.4163354,-2320.647705078125,-33038.02734375,-165734.703125,-171315.046875,-169830.53125,-157761.390625,-151157.078125,-205009.5,0.510498046875,0.78662109375,0.345947265625,-1.8615721464157104,-0.2746581733226776,0.4272460639476776,60.0,41538.0,1.0
24184.4188315,-251.23361206054688,-30418.84765625,-166247.09375,-171076.6875,-169799.421875,-157230.9375,-150810.265625,-205162.375,0.50927734375,0.78369140625,0.3486328125,-1.9836424589157104,-0.2441406100988388,0.3662109076976776,60.0,41539.0,1.0
24184.4213459,4425.6455078125,-12571.158203125,-166894.578125,-170214.4375,-169047.953125,-154974.390625,-148487.734375,-204340.015625,0.51025390625,0.78662109375,0.349365234375,-1.9226073026657104,-0.3356933295726776,0.3356933295726776,60.0,41540.0,1.0
24184.4238434,2647.60888671875,-14228.2275390625,-166443.609375,-170400.40625,-169026.3125,-155338.1875,-148655.109375,-204145.109375,0.5126953125,0.790283203125,0.34716796875,-1.8615721464157104,-0.2136230319738388,0.3051757514476776,60.0,41541.0,1.0
24184.426339,-2021.9388427734375,-31416.541015625,-165785.578125,-171253.890625,-169756.671875,-157545.46875,-150912.375,-204931.078125,0.512451171875,0.790283203125,0.3466796875,-1.8920897245407104,-0.1525878757238388,0.3356933295726776,60.0,41542.0,1.0
24184.4294195,-1098.5435791015625,-32270.646484375,-166128.8125,-171228.59375,-169904.296875,-157565.40625,-151127.65625,-205273.875,0.51171875,0.788818359375,0.348876953125,-1.9226073026657104,-0.2136230319738388,0.3051757514476776,60.0,41543.0,1.0
24184.4294277,3940.5234375,-15185.5966796875,-166875.984375,-170339.4375,-169175.4375,-155269.171875,-148817.203125,-204520.4375,0.509521484375,0.789306640625,0.350830078125,-1.9531248807907104,-0.2746581733226776,0.4577636420726776,60.0,41544.0,1.0
24184.4313462,3377.706298828125,-11919.0234375,-166594.796875,-170309.921875,-168971.6875,-155077.84375,-148418.625,-204133.3125,0.507568359375,0.788330078125,0.34912109375,-1.9531248807907104,-0.2746581733226776,0.4882812201976776,60.0,41545.0,1.0
24184.4350774,-1526.0877685546875,-29252.265625,-165852.09375,-171176.375,-169663.875,-157282.34375,-150620.90625,-204836.9375,0.508544921875,0.785888671875,0.349853515625,-2.014159917831421,-0.2746581733226776,0.4577636420726776,60.0,41546.0,1.0
24184.4444146,-1772.6722412109375,-33514.83203125,-166022.6875,-171359.03125,-169983.859375,-157836.5,-151373.703125,-205354.515625,0.50927734375,0.78662109375,0.347900390625,-1.9836424589157104,-0.3356933295726776,0.5187987685203552,60.0,41547.0,1.0
24184.4444229,3264.159423828125,-18344.970703125,-166823.6875,-170496.609375,-169325.828125,-155650.5,-149224.8125,-204723.75,0.510009765625,0.78515625,0.349365234375,-1.9226073026657104,-0.3051757514476776,0.5187987685203552,60.0,41548.0,1.0
24184.4469175,3974.58740234375,-10262.3125,-166731.59375,-170241.71875,-168944.953125,-154898.84375,-148264.140625,-204160.75,0.50927734375,0.786865234375,0.348876953125,-1.8920897245407104,-0.2441406100988388,0.5187987685203552,60.0,41549.0,1.0
24184.4469256,-849.7239379882812,-26443.724609375,-165958.9375,-171056.921875,-169550.0625,-156941.796875,-150253.34375,-204733.859375,0.51220703125,0.78955078125,0.345703125,-1.9531248807907104,-0.1525878757238388,0.3662109076976776,60.0,41550.0,1.0
24184.4600869,-2282.739013671875,-34108.2265625,-165941.953125,-171442.71875,-170025.171875,-158006.359375,-151507.1875,-205396.984375,0.512451171875,0.788330078125,0.3486328125,-1.9836424589157104,-0.2441406100988388,0.4272460639476776,60.0,41551.0,1.0
24184.4650765,2381.4443359375,-21552.267578125,-166741.703125,-170677.390625,-169488.453125,-156090.109375,-149676.765625,-204934.296875,0.511474609375,0.786865234375,0.34912109375,-1.9531248807907104,-0.2441406100988388,0.4882812201976776,60.0,41552.0,1.0
24184.4650835,4345.2685546875,-9329.3505859375,-166853.8125,-170217.125,-168957.203125,-154814.1875,-148209.953125,-204227.71875,0.510498046875,0.78662109375,0.34716796875,-2.044677495956421,-0.3051757514476776,0.5187987685203552,60.0,41553.0,1.0
24184.4650862,-43.272979736328125,-23264.859375,-166100.203125,-170926.65625,-169434.015625,-156555.296875,-149854.15625,-204628.078125,0.5107421875,0.78662109375,0.34765625,-2.014159917831421,-0.2746581733226776,0.5798339247703552,60.0,41554.0,1.0
24184.4688337,-2577.9609375,-34158.47265625,-165886.609375,-171489.390625,-170030.890625,-158067.078125,-151533.03125,-205392.609375,0.510498046875,0.7841796875,0.349853515625,-1.9226073026657104,-0.2746581733226776,0.5493163466453552,60.0,41555.0,1.0
24184.4800808,1373.73828125,-24900.0234375,-166630.5625,-170871.578125,-169651.984375,-156551.71875,-150148.921875,-205134.9375,0.51123046875,0.7880859375,0.35009765625,-1.7700194120407104,-0.3051757514476776,0.3967284858226776,60.0,41556.0,1.0
24184.4875147,4496.54541015625,-9428.0556640625,-166951.0,-170222.9375,-168999.40625,-154812.578125,-148253.234375,-204330.8125,0.511962890625,0.78857421875,0.34716796875,-1.8310545682907104,-0.2746581733226776,0.4272460639476776,60.0,41557.0,1.0
24184.4875234,811.7260131835938,-19792.650390625,-166265.34375,-170777.265625,-169314.734375,-156135.703125,-149437.59375,-204529.828125,0.51171875,0.787353515625,0.3505859375,-1.8920897245407104,-0.3356933295726776,0.3967284858226776,60.0,41558.0,1.0
24184.4875276,-2683.639892578125,-33620.69140625,-165867.03125,-171487.859375,-169999.421875,-158011.109375,-151444.703125,-205353.796875,0.51123046875,0.786865234375,0.347412109375,-1.8920897245407104,-0.3051757514476776,0.4577636420726776,60.0,41559.0,1.0
24184.4906645,375.1517028808594,-27855.4609375,-166501.1875,-171057.90625,-169799.234375,-156996.421875,-150590.140625,-205310.625,0.510986328125,0.7880859375,0.349853515625,-1.8920897245407104,-0.2746581733226776,0.4882812201976776,60.0,41560.0,1.0
24184.4906713,4442.54345703125,-10622.443359375,-167000.984375,-170273.625,-169075.9375,-154932.734375,-148414.15625,-204468.140625,0.5107421875,0.78662109375,0.349853515625,-1.8920897245407104,-0.3051757514476776,0.3356933295726776,60.0,41561.0,1.0
24184.503837,1667.5296630859375,-16692.462890625,-166424.125,-170652.984375,-169222.65625,-155785.59375,-149095.265625,-204468.40625,0.5107421875,0.787841796875,0.348388671875,-1.8615721464157104,-0.3356933295726776,0.3356933295726776,60.0,41562.0,1.0
24184.5069041,-2558.023193359375,-32583.30078125,-165876.5,-171469.09375,-169953.203125,-157902.03125,-151299.0625,-205300.515625,0.5107421875,0.788818359375,0.347900390625,-1.8920897245407104,-0.3356933295726776,0.4272460639476776,60.0,41563.0,1.0
24184.5069123,-556.4690551757812,-30286.078125,-166373.875,-171240.203125,-169933.265625,-157410.46875,-150990.15625,-205461.359375,0.5107421875,0.7890625,0.34619140625,-1.8615721464157104,-0.2746581733226776,0.4577636420726776,60.0,41564.0,1.0
24184.515673,4168.51123046875,-12517.603515625,-167021.453125,-170362.234375,-169180.453125,-155144.265625,-148662.796875,-204632.46875,0.5107421875,0.78857421875,0.34912109375,-1.8615721464157104,-0.2746581733226776,0.4882812201976776,60.0,41565.0,1.0
24184.5156815,2499.193359375,-13704.927734375,-166589.4375,-170531.84375,-169141.5625,-155456.296875,-148779.390625,-204425.21875,0.5126953125,0.788330078125,0.3466796875,-1.8920897245407104,-0.2441406100988388,0.4882812201976776,60.0,41566.0,1.0
24184.5219154,-2185.911376953125,-30886.625,-165926.21875,-171398.1875,-169867.71875,-157668.234375,-151032.625,-205212.09375,0.511962890625,0.78759765625,0.348388671875,-1.8310545682907104,-0.2441406100988388,0.4577636420726776,60.0,41567.0,1.0
24184.5219231,-1380.8013916015625,-32084.41015625,-166253.984375,-171387.734375,-170032.953125,-157739.390625,-151299.953125,-205573.5625,0.51171875,0.786865234375,0.34814453125,-1.9226073026657104,-0.2746581733226776,0.3967284858226776,60.0,41568.0,1.0
24184.5238306,3646.195556640625,-15134.27734375,-167006.34375,-170490.078125,-169314.390625,-155452.546875,-149006.65625,-204827.109375,0.51025390625,0.78759765625,0.34765625,-1.8920897245407104,-0.2746581733226776,0.5493163466453552,60.0,41569.0,1.0
24184.53508,3217.0419921875,-11323.1259765625,-166745.0,-170438.234375,-169090.859375,-155200.15625,-148546.921875,-204420.484375,0.510009765625,0.787841796875,0.347900390625,-1.9836424589157104,-0.3356933295726776,0.5798339247703552,60.0,41570.0,1.0
24184.5450802,-1657.3372802734375,-28599.1484375,-166003.375,-171305.75,-169770.171875,-157383.640625,-150721.75,-205115.984375,0.5107421875,0.787109375,0.347900390625,-1.9531248807907104,-0.2441406100988388,0.5187987685203552,60.0,41571.0,1.0
24184.5450884,-2048.939697265625,-33251.9765625,-166154.921875,-171507.265625,-170107.609375,-157992.953125,-151529.71875,-205652.421875,0.5126953125,0.787841796875,0.349365234375,-1.8920897245407104,-0.1831054538488388,0.3967284858226776,60.0,41572.0,1.0
24184.5450924,2886.146728515625,-18276.75390625,-166957.96875,-170650.03125,-169469.765625,-155837.796875,-149422.40625,-205038.28125,0.512939453125,0.785400390625,0.34619140625,-1.8920897245407104,-0.1525878757238388,0.3662109076976776,60.0,41573.0,1.0
24184.5481784,3752.142822265625,-9615.005859375,-166893.234375,-170373.859375,-169071.828125,-155016.234375,-148395.296875,-204450.875,0.514404296875,0.788330078125,0.346923828125,-1.8615721464157104,-0.1831054538488388,0.2746581733226776,60.0,41574.0,1.0
24184.5481866,-988.572998046875,-25700.662109375,-166123.625,-171181.734375,-169655.296875,-157013.765625,-150336.328125,-205004.9375,0.51318359375,0.78662109375,0.343994140625,-1.8005369901657104,-0.1220703050494194,0.4272460639476776,60.0,41575.0,1.0
24184.5500734,-2546.66845703125,-33791.81640625,-166078.46875,-171587.375,-170142.203125,-158135.296875,-151643.453125,-205683.796875,0.5087890625,0.787109375,0.34814453125,-1.8005369901657104,-0.1831054538488388,0.3967284858226776,60.0,41576.0,1.0
24184.5613294,2021.3131103515625,-21642.2109375,-166866.15625,-170832.953125,-169627.125,-156273.484375,-149872.390625,-205240.34375,0.509521484375,0.78662109375,0.34521484375,-1.8310545682907104,-0.1831054538488388,0.5187987685203552,60.0,41577.0,1.0
24184.5644101,4104.31689453125,-9093.2265625,-166999.1875,-170352.390625,-169086.125,-154952.9375,-148365.25,-204521.78125,0.51171875,0.78564453125,0.347900390625,-1.8615721464157104,-0.2441406100988388,0.3967284858226776,60.0,41578.0,1.0
24184.5644174,-205.099609375,-22670.392578125,-166255.765625,-171053.171875,-169545.953125,-156654.4375,-149964.03125,-204911.0625,0.51123046875,0.785888671875,0.349365234375,-1.8920897245407104,-0.2746581733226776,0.3356933295726776,60.0,41579.0,1.0
24184.566318,-2818.197509765625,-33789.9375,-166024.921875,-171631.546875,-170149.71875,-158202.703125,-151672.78125,-205686.390625,0.509033203125,0.785400390625,0.348876953125,-1.7395018339157104,-0.3051757514476776,0.4577636420726776,60.0,41580.0,1.0
24184.5800728,1067.0723876953125,-24898.861328125,-166755.90625,-171027.234375,-169790.46875,-156739.109375,-150338.640625,-205441.6875,0.50830078125,0.78759765625,0.347412109375,-1.7700194120407104,-0.2746581733226776,0.3967284858226776,60.0,41581.0,1.0
24184.5831615,4262.1201171875,-9324.25390625,-167088.6875,-170366.609375,-169136.015625,-154979.21875,-148425.875,-204630.953125,0.509521484375,0.786865234375,0.3466796875,-1.7700194120407104,-0.1831054538488388,0.3051757514476776,60.0,41582.0,1.0
24184.583168,661.1646118164062,-19307.6171875,-166416.4375,-170913.78125,-169437.046875,-156263.90625,-149569.75,-204822.359375,0.509033203125,0.78662109375,0.34814453125,-1.8005369901657104,-0.1831054538488388,0.3662109076976776,60.0,41583.0,1.0
24184.5850957,-2879.798828125,-33227.74609375,-166008.109375,-171640.3125,-170124.859375,-158161.84375,-151593.921875,-205654.03125,0.512939453125,0.787353515625,0.348388671875,-1.8615721464157104,-0.1831054538488388,0.3662109076976776,60.0,41584.0,1.0
24184.5875799,80.91332244873047,-27796.80859375,-166631.71875,-171222.0625,-169941.578125,-157188.921875,-150783.0,-205622.5625,0.51025390625,0.787353515625,0.348876953125,-1.8920897245407104,-0.2746581733226776,0.4577636420726776,60.0,41585.0,1.0
24184.5963366,4197.30029296875,-10452.48046875,-167143.140625,-170419.28125,-169215.3125,-155101.71875,-148588.859375,-204772.296875,0.509521484375,0.78759765625,0.349365234375,-1.8920897245407104,-0.2746581733226776,0.3967284858226776,60.0,41586.0,1.0
24184.5994127,1544.3267822265625,-15990.5283203125,-166581.921875,-170779.3125,-169339.59375,-155896.359375,-149211.046875,-204755.046875,0.51123046875,0.786865234375,0.348388671875,-1.7700194120407104,-0.2746581733226776,0.3967284858226776,60.0,41587.0,1.0
24184.5994194,-2710.551513671875,-32081.19140625,-166023.765625,-171607.671875,-170068.53125,-158024.0625,-151420.921875,-205591.53125,0.51220703125,0.78662109375,0.3466796875,-1.9836424589157104,-0.3662109076976776,0.4577636420726776,60.0,41588.0,1.0
24184.6025712,-858.3964233398438,-30149.64453125,-166504.5,-171396.046875,-170070.046875,-157590.625,-151174.328125,-205773.203125,0.51171875,0.7900390625,0.349853515625,-1.9226073026657104,-0.3356933295726776,0.4577636420726776,60.0,41589.0,1.0
24184.6188301,3852.099853515625,-12321.8017578125,-167168.796875,-170509.484375,-169326.359375,-155319.859375,-148851.09375,-204948.15625,0.509765625,0.787353515625,0.35107421875,-1.9836424589157104,-0.3356933295726776,0.4882812201976776,60.0,41590.0,1.0
24184.6219148,2324.40283203125,-12972.6845703125,-166752.34375,-170657.8125,-169263.421875,-155565.734375,-148899.109375,-204713.921875,0.509765625,0.78857421875,0.352294921875,-2.075195074081421,-0.3051757514476776,0.4882812201976776,60.0,41591.0,1.0
24184.621923,-2353.28125,-30315.314453125,-166079.453125,-171529.890625,-169978.40625,-157770.328125,-151142.234375,-205494.4375,0.51171875,0.786376953125,0.35400390625,-2.014159917831421,-0.3051757514476776,0.5187987685203552,60.0,41592.0,1.0
24184.6238352,-1663.3275146484375,-31875.82421875,-166389.796875,-171545.171875,-170166.609375,-157906.5,-151473.9375,-205878.171875,0.51171875,0.78466796875,0.3515625,-1.9531248807907104,-0.2441406100988388,0.4272460639476776,60.0,41593.0,1.0
24184.6263364,3339.618896484375,-15055.509765625,-167143.765625,-170647.171875,-169459.9375,-155638.328125,-149202.90625,-205136.8125,0.511962890625,0.78466796875,0.34765625,-1.8615721464157104,-0.3356933295726776,0.4577636420726776,60.0,41594.0,1.0
24184.6288342,3042.51953125,-10745.556640625,-166899.5,-170572.25,-169216.03125,-155324.875,-148683.453125,-204709.890625,0.510498046875,0.785888671875,0.34619140625,-1.8310545682907104,-0.3662109076976776,0.3356933295726776,60.0,41595.0,1.0
24184.6375871,-1795.02392578125,-27971.95703125,-166157.6875,-171437.53125,-169881.40625,-157483.328125,-150830.203125,-205398.328125,0.512451171875,0.786865234375,0.348876953125,-1.8615721464157104,-0.3356933295726776,0.3051757514476776,60.0,41596.0,1.0
24184.6419344,-2298.742919921875,-32983.48828125,-166290.375,-171661.578125,-170235.984375,-158148.875,-151690.75,-205951.84375,0.510986328125,0.787353515625,0.3486328125,-1.8310545682907104,-0.3356933295726776,0.3967284858226776,60.0,41597.0,1.0
24184.6419428,2610.05810546875,-18238.041015625,-167086.359375,-170808.640625,-169612.28125,-156029.21875,-149617.84375,-205344.59375,0.510498046875,0.787353515625,0.34716796875,-1.8615721464157104,-0.3051757514476776,0.4272460639476776,60.0,41598.0,1.0
24184.646337,3576.99462890625,-9268.5537109375,-167035.3125,-170515.5625,-169203.078125,-155169.390625,-148554.703125,-204747.0,0.510498046875,0.7880859375,0.344970703125,-1.9226073026657104,-0.3356933295726776,0.4577636420726776,60.0,41599.0,1.0
24184.6500723,-1113.6533203125,-25144.462890625,-166270.609375,-171322.375,-169775.90625,-157145.015625,-150469.359375,-205297.109375,0.51123046875,0.788818359375,0.345458984375,-1.8615721464157104,-0.3356933295726776,0.3967284858226776,60.0,41600.0,1.0
24184.6569108,-2765.08984375,-33490.15625,-166214.28125,-171743.578125,-170273.984375,-158302.75,-151809.84375,-205987.421875,0.509033203125,0.78662109375,0.347412109375,-1.8615721464157104,-0.3356933295726776,0.3356933295726776,60.0,41601.0,1.0
24184.656919,1722.7830810546875,-21619.0546875,-166998.921875,-170996.3125,-169775.984375,-156475.09375,-150075.515625,-205555.0625,0.5107421875,0.78515625,0.347412109375,-1.9531248807907104,-0.2746581733226776,0.3967284858226776,60.0,41602.0,1.0
24184.6675694,3920.138427734375,-8632.5126953125,-167151.1875,-170493.296875,-169221.3125,-155102.515625,-148520.46875,-204820.125,0.51318359375,0.787353515625,0.348876953125,-1.9226073026657104,-0.2441406100988388,0.4272460639476776,60.0,41603.0,1.0
24184.670663,-308.0964660644531,-21890.13671875,-166413.65625,-171182.71875,-169660.390625,-156756.375,-150070.609375,-205192.6875,0.51025390625,0.786376953125,0.34619140625,-1.9836424589157104,-0.2746581733226776,0.4882812201976776,60.0,41604.0,1.0
24184.6706713,-3018.82666015625,-33410.8515625,-166166.8125,-171781.484375,-170273.1875,-158341.203125,-151814.578125,-205978.484375,0.51025390625,0.78466796875,0.345947265625,-1.8920897245407104,-0.2746581733226776,0.3356933295726776,60.0,41605.0,1.0
24184.6725725,740.0216064453125,-24821.970703125,-166884.296875,-171189.96875,-169932.90625,-156928.65625,-150535.078125,-205749.78125,0.513427734375,0.786376953125,0.3486328125,-1.8310545682907104,-0.3051757514476776,0.4272460639476776,60.0,41606.0,1.0
24184.6813236,4023.93994140625,-8960.9931640625,-167233.25,-170506.453125,-169271.921875,-155134.703125,-148592.265625,-204931.890625,0.508544921875,0.786376953125,0.34765625,-1.8310545682907104,-0.3356933295726776,0.3662109076976776,60.0,41607.0,1.0
24184.6844197,527.7694091796875,-18544.080078125,-166571.828125,-171038.78125,-169551.765625,-156365.296875,-149681.421875,-205103.734375,0.506103515625,0.785888671875,0.3486328125,-1.9226073026657104,-0.2746581733226776,0.3356933295726776,60.0,41608.0,1.0
24184.6844281,-3090.262939453125,-32785.2734375,-166149.640625,-171781.75,-170241.71875,-158286.296875,-151726.15625,-205939.6875,0.510986328125,0.787109375,0.34912109375,-1.9531248807907104,-0.2746581733226776,0.4272460639476776,60.0,41609.0,1.0
24184.6863368,-241.22003173828125,-27681.654296875,-166757.078125,-171379.421875,-170077.921875,-157371.21875,-150973.96875,-205928.515625,0.510986328125,0.78759765625,0.34814453125,-1.9531248807907104,-0.3051757514476776,0.5493163466453552,60.0,41610.0,1.0
24184.7000706,3940.255126953125,-10179.1640625,-167283.6875,-170564.109375,-169351.671875,-155264.515625,-148763.734375,-205075.390625,0.512451171875,0.787353515625,0.3486328125,-1.9226073026657104,-0.2746581733226776,0.4272460639476776,60.0,41611.0,1.0
24184.7031633,1398.1463623046875,-15269.37109375,-166738.296875,-170906.453125,-169455.828125,-155999.359375,-149324.59375,-205037.390625,0.511474609375,0.7880859375,0.347900390625,-1.8920897245407104,-0.3662109076976776,0.4577636420726776,60.0,41612.0,1.0
24184.7031718,-2904.028076171875,-31575.505859375,-166168.15625,-171744.734375,-170181.265625,-158134.9375,-151540.90625,-205872.984375,0.511474609375,0.78759765625,0.34765625,-1.9226073026657104,-0.2441406100988388,0.3356933295726776,60.0,41613.0,1.0
24184.7050856,-1146.7340087890625,-29982.2734375,-166630.828125,-171555.09375,-170202.640625,-157762.015625,-151352.703125,-206073.609375,0.51123046875,0.787353515625,0.345458984375,-1.9836424589157104,-0.2441406100988388,0.3356933295726776,60.0,41614.0,1.0
24184.7088232,3611.05859375,-12220.861328125,-167298.96875,-170664.15625,-169462.171875,-155493.5,-149032.140625,-205248.484375,0.5107421875,0.785400390625,0.345947265625,-1.9226073026657104,-0.2441406100988388,0.3356933295726776,60.0,41615.0,1.0
24184.7180285,2189.308837890625,-12376.4296875,-166902.0,-170792.734375,-169382.15625,-155684.28125,-149027.046875,-204999.578125,0.510009765625,0.78466796875,0.346435546875,-1.9836424589157104,-0.2746581733226776,0.4577636420726776,60.0,41616.0,1.0
24184.7180349,-2552.47998046875,-29736.404296875,-166220.0,-171674.546875,-170097.671875,-157901.3125,-151277.234375,-205782.859375,0.509521484375,0.7841796875,0.347412109375,-1.9836424589157104,-0.2441406100988388,0.4272460639476776,60.0,41617.0,1.0
24184.7238266,-1971.0662841796875,-31639.521484375,-166519.96875,-171699.046875,-170298.578125,-158073.953125,-151646.9375,-206180.015625,0.510009765625,0.784912109375,0.3466796875,-1.8310545682907104,-0.2441406100988388,0.3662109076976776,60.0,41618.0,1.0
24184.7263359,3006.130859375,-14950.45703125,-167279.21875,-170796.65625,-169599.140625,-155813.75,-149387.984375,-205446.609375,0.509521484375,0.7861328125,0.345947265625,-1.7395018339157104,-0.2136230319738388,0.4272460639476776,60.0,41619.0,1.0
24184.7300741,2816.677490234375,-10177.2861328125,-167053.734375,-170704.03125,-169339.5,-155447.984375,-148816.046875,-205001.625,0.5087890625,0.7841796875,0.348876953125,-1.8005369901657104,-0.1525878757238388,0.2746581733226776,60.0,41620.0,1.0
24184.7388258,-2011.03125,-27338.6875,-166311.03125,-171568.328125,-169994.140625,-157584.90625,-150939.640625,-205678.265625,0.51123046875,0.788330078125,0.34814453125,-1.8310545682907104,-0.2441406100988388,0.3662109076976776,60.0,41621.0,1.0
24184.7419103,-2619.892822265625,-32694.970703125,-166424.125,-171811.515625,-170363.03125,-158299.171875,-151848.546875,-206246.265625,0.511962890625,0.78759765625,0.348876953125,-1.8310545682907104,-0.2746581733226776,0.4577636420726776,60.0,41622.0,1.0
24184.7419185,2242.41650390625,-18178.138671875,-167218.6875,-170967.515625,-169753.1875,-156210.625,-149810.078125,-205653.40625,0.512939453125,0.78515625,0.34814453125,-1.8310545682907104,-0.3051757514476776,0.3967284858226776,60.0,41623.0,1.0
24184.7475739,3332.645263671875,-8752.228515625,-167187.296875,-170653.078125,-169327.96875,-155296.984375,-148695.34375,-205038.640625,0.51123046875,0.78662109375,0.3505859375,-1.8920897245407104,-0.3051757514476776,0.3967284858226776,60.0,41624.0,1.0
24184.756912,-1293.5401611328125,-24421.427734375,-166425.734375,-171446.921875,-169883.28125,-157231.296875,-150568.875,-205570.703125,0.509765625,0.788330078125,0.347900390625,-1.8615721464157104,-0.2441406100988388,0.4272460639476776,60.0,41625.0,1.0
24184.7569206,-3046.989990234375,-33135.390625,-166350.71875,-171887.78125,-170393.53125,-158432.21875,-151951.8125,-206273.265625,0.510986328125,0.786865234375,0.347412109375,-1.9226073026657104,-0.2746581733226776,0.3967284858226776,60.0,41626.0,1.0
24184.7594056,1368.195068359375,-21511.23046875,-167125.875,-171154.640625,-169911.703125,-156650.953125,-150265.0625,-205860.46875,0.5107421875,0.787841796875,0.348876953125,-1.8920897245407104,-0.3662109076976776,0.3662109076976776,60.0,41627.0,1.0
24184.759412,3662.288818359375,-8212.8359375,-167295.84375,-170632.875,-169346.65625,-155239.3125,-148671.390625,-205115.890625,0.51318359375,0.78759765625,0.346923828125,-1.9531248807907104,-0.3662109076976776,0.4577636420726776,60.0,41628.0,1.0
24184.7675791,-506.2223205566406,-21173.71875,-166568.0625,-171310.125,-169771.34375,-156851.859375,-150178.421875,-205472.890625,0.510986328125,0.787109375,0.34619140625,-2.044677495956421,-0.2441406100988388,0.4882812201976776,60.0,41629.0,1.0
24184.7744258,-3306.180908203125,-33005.66015625,-166304.234375,-171924.265625,-170392.0,-158471.546875,-151955.296875,-206267.1875,0.51025390625,0.78759765625,0.34814453125,-1.8920897245407104,-0.2441406100988388,0.3967284858226776,60.0,41630.0,1.0
24184.7744344,373.8105773925781,-24725.58984375,-167012.6875,-171352.6875,-170070.765625,-157111.140625,-150728.375,-206060.203125,0.509033203125,0.78662109375,0.3466796875,-1.8005369901657104,-0.2441406100988388,0.3662109076976776,60.0,41631.0,1.0
24184.7800756,3768.59375,-8595.05078125,-167377.65625,-170655.3125,-169399.40625,-155279.0,-148750.59375,-205229.609375,0.509521484375,0.7861328125,0.349853515625,-1.8310545682907104,-0.1525878757238388,0.3967284858226776,60.0,41632.0,1.0
24184.7894092,370.9495544433594,-17753.9921875,-166726.234375,-171167.796875,-169660.390625,-156458.546875,-149786.28125,-205380.4375,0.511962890625,0.786865234375,0.3505859375,-1.8310545682907104,-0.2136230319738388,0.3662109076976776,60.0,41633.0,1.0
24184.7894172,-3330.320556640625,-32314.09765625,-166288.140625,-171921.046875,-170356.78125,-158406.28125,-151854.09375,-206220.953125,0.50927734375,0.789306640625,0.34912109375,-1.8005369901657104,-0.1831054538488388,0.4272460639476776,60.0,41634.0,1.0
24184.7956695,-612.6166381835938,-27543.51953125,-166883.859375,-171541.515625,-170213.28125,-157545.109375,-151157.4375,-206229.625,0.509033203125,0.78857421875,0.348876953125,-1.8615721464157104,-0.1831054538488388,0.4882812201976776,60.0,41635.0,1.0
24184.7956771,3616.423095703125,-9928.734375,-167425.484375,-170716.734375,-169484.796875,-155421.15625,-148933.4375,-205377.3125,0.5107421875,0.787109375,0.35205078125,-1.8920897245407104,-0.2441406100988388,0.4272460639476776,60.0,41636.0,1.0
24184.7981594,1180.7979736328125,-14562.51953125,-166894.578125,-171036.09375,-169570.359375,-156101.546875,-149438.859375,-205319.5625,0.5107421875,0.78662109375,0.349609375,-1.8615721464157104,-0.2136230319738388,0.4577636420726776,60.0,41637.0,1.0
24184.7981657,-3172.517333984375,-31045.14453125,-166310.9375,-171878.484375,-170295.0,-158248.21875,-151662.9375,-206152.921875,0.508544921875,0.7861328125,0.347900390625,-1.8615721464157104,-0.2441406100988388,0.4882812201976776,60.0,41638.0,1.0
24184.8269113,-1538.068359375,-29801.671875,-166761.09375,-171714.328125,-170337.734375,-157934.21875,-151533.75,-206375.71875,0.510986328125,0.784912109375,0.348388671875,-1.8005369901657104,-0.2441406100988388,0.4577636420726776,60.0,41639.0,1.0
24184.8269201,3263.53369140625,-12063.1474609375,-167439.421875,-170818.65625,-169599.5,-155661.21875,-149212.5625,-205556.21875,0.510986328125,0.78662109375,0.348388671875,-1.7700194120407104,-0.3356933295726776,0.4272460639476776,60.0,41640.0,1.0
24184.8288313,1968.3841552734375,-11760.326171875,-167055.78125,-170924.328125,-169500.796875,-155797.5625,-149152.21875,-205286.828125,0.510986328125,0.786376953125,0.34765625,-1.8310545682907104,-0.2136230319738388,0.4882812201976776,60.0,41641.0,1.0
24184.8393333,-2768.666015625,-29167.330078125,-166364.671875,-171805.0,-170208.90625,-158007.625,-151391.859375,-206060.296875,0.5107421875,0.787353515625,0.34716796875,-1.8615721464157104,-0.2746581733226776,0.4882812201976776,60.0,41642.0,1.0
24184.8393414,-2302.051025390625,-31423.513671875,-166646.390625,-171857.03125,-170429.28125,-158241.953125,-151821.28125,-206477.46875,0.51025390625,0.788330078125,0.3466796875,-1.8920897245407104,-0.3051757514476776,0.4577636420726776,60.0,41643.0,1.0
24184.8393451,2697.498046875,-14869.54296875,-167413.765625,-170958.84375,-169736.296875,-155991.140625,-149575.203125,-205754.34375,0.509765625,0.788330078125,0.349365234375,-1.7700194120407104,-0.2136230319738388,0.4577636420726776,60.0,41644.0,1.0
24184.8393486,2631.783935546875,-9586.3955078125,-167208.9375,-170842.609375,-169460.109375,-155567.875,-148946.671875,-205292.46875,0.51025390625,0.7880859375,0.346923828125,-1.8615721464157104,-0.2746581733226776,0.4272460639476776,60.0,41645.0,1.0
24184.8413223,-2205.84912109375,-26679.580078125,-166459.171875,-171701.8125,-170106.796875,-157691.65625,-151054.078125,-205958.453125,0.511474609375,0.787353515625,0.3486328125,-1.8310545682907104,-0.3051757514476776,0.3967284858226776,60.0,41646.0,1.0
24184.8450768,-2924.860107421875,-32392.5078125,-166555.46875,-171963.953125,-170489.09375,-158451.875,-152009.84375,-206541.296875,0.51123046875,0.786376953125,0.3486328125,-1.8310545682907104,-0.3051757514476776,0.4577636420726776,60.0,41647.0,1.0
24184.8450851,1916.2598876953125,-18049.66015625,-167351.625,-171126.484375,-169888.546875,-156383.625,-149996.21875,-205962.65625,0.512451171875,0.786865234375,0.34716796875,-1.8005369901657104,-0.2441406100988388,0.3967284858226776,60.0,41648.0,1.0
24184.8450892,3120.124755859375,-8146.048828125,-167338.9375,-170786.734375,-169446.078125,-155414.546875,-148826.421875,-205330.28125,0.51220703125,0.785888671875,0.34765625,-1.8615721464157104,-0.2136230319738388,0.4272460639476776,60.0,41649.0,1.0
24184.8488274,-1490.235595703125,-23624.54296875,-166580.5,-171570.125,-169990.5625,-157320.53125,-150665.875,-205846.171875,0.5107421875,0.7861328125,0.347900390625,-1.8615721464157104,-0.3051757514476776,0.4577636420726776,60.0,41650.0,1.0
24184.8550743,-3374.130126953125,-32765.9609375,-166486.171875,-172029.671875,-170513.78125,-158567.484375,-152092.625,-206559.453125,0.51171875,0.78564453125,0.347412109375,-1.8310545682907104,-0.3662109076976776,0.4882812201976776,60.0,41651.0,1.0
24184.8594092,967.6517944335938,-21381.6796875,-167256.0625,-171314.78125,-170049.3125,-156830.3125,-150453.71875,-206168.5625,0.511474609375,0.786865234375,0.34814453125,-1.8005369901657104,-0.3662109076976776,0.4272460639476776,60.0,41652.0,1.0
24184.8594158,3364.653076171875,-7726.19384765625,-167445.328125,-170775.203125,-169471.921875,-155374.3125,-148819.078125,-205413.078125,0.510986328125,0.786865234375,0.348876953125,-1.8310545682907104,-0.2746581733226776,0.4577636420726776,60.0,41653.0,1.0
24184.8675628,-739.3063354492188,-20366.552734375,-166726.40625,-171432.703125,-169878.984375,-156937.234375,-150274.71875,-205746.828125,0.5087890625,0.7861328125,0.344482421875,-1.9531248807907104,-0.2746581733226776,0.3356933295726776,60.0,41654.0,1.0
24184.8769088,-3628.76123046875,-32568.548828125,-166448.171875,-172058.46875,-170506.625,-158583.125,-152075.828125,-206544.796875,0.509765625,0.787841796875,0.349365234375,-1.9226073026657104,-0.2136230319738388,0.3051757514476776,60.0,41655.0,1.0
24184.8769169,-56.86283874511719,-24561.796875,-167138.578125,-171510.671875,-170205.6875,-157288.515625,-150915.140625,-206363.109375,0.510009765625,0.788330078125,0.348876953125,-1.8310545682907104,-0.3051757514476776,0.3662109076976776,60.0,41656.0,1.0
24184.8856537,3425.718017578125,-8173.31787109375,-167524.015625,-170798.359375,-169527.796875,-155424.5625,-148908.40625,-205530.203125,0.510986328125,0.78759765625,0.34912109375,-1.8310545682907104,-0.3051757514476776,0.4577636420726776,60.0,41657.0,1.0
24184.8856602,96.55953979492188,-16970.697265625,-166885.90625,-171292.78125,-169774.65625,-156559.21875,-149896.34375,-205663.6875,0.5107421875,0.78564453125,0.34814453125,-1.8615721464157104,-0.2746581733226776,0.3967284858226776,60.0,41658.0,1.0
24184.8881652,-3669.888427734375,-31822.537109375,-166433.515625,-172054.078125,-170474.265625,-158526.265625,-151980.15625,-206504.109375,0.50927734375,0.786376953125,0.348876953125,-1.8310545682907104,-0.1831054538488388,0.3662109076976776,60.0,41659.0,1.0
24184.8881712,-1047.045166015625,-27364.4375,-167013.046875,-171699.578125,-170350.34375,-157726.34375,-151344.5625,-206536.75,0.5107421875,0.78759765625,0.34814453125,-1.7700194120407104,-0.2136230319738388,0.3662109076976776,60.0,41660.0,1.0
24184.901319,3258.884521484375,-9614.916015625,-167570.046875,-170865.140625,-169617.109375,-155579.5,-149101.25,-205683.171875,0.510009765625,0.787841796875,0.349853515625,-1.8310545682907104,-0.3662109076976776,0.4272460639476776,60.0,41661.0,1.0
24184.9044089,904.9774780273438,-13808.55078125,-167050.78125,-171165.546875,-169686.671875,-156212.234375,-149555.265625,-205604.671875,0.51220703125,0.7890625,0.345947265625,-1.8005369901657104,-0.3662109076976776,0.4577636420726776,60.0,41662.0,1.0
24184.9044168,-3521.02587890625,-30493.50390625,-166458.453125,-172016.703125,-170414.453125,-158372.9375,-151789.625,-206436.15625,0.51220703125,0.78759765625,0.347900390625,-1.7700194120407104,-0.3662109076976776,0.5187987685203552,60.0,41663.0,1.0
24184.9063201,-2007.54443359375,-29597.64453125,-166891.359375,-171872.3125,-170473.546875,-158111.421875,-151715.609375,-206679.171875,0.509765625,0.785888671875,0.34912109375,-1.8615721464157104,-0.3051757514476776,0.5187987685203552,60.0,41664.0,1.0
24184.9088316,2816.23046875,-11855.544921875,-167583.203125,-170969.75,-169735.484375,-155827.15625,-149390.03125,-205867.4375,0.50927734375,0.78662109375,0.3466796875,-1.8615721464157104,-0.2746581733226776,0.3967284858226776,60.0,41665.0,1.0
24184.9125708,1649.11181640625,-10930.361328125,-167219.3125,-171048.078125,-169615.140625,-155896.890625,-149259.328125,-205571.5,0.509765625,0.787109375,0.347412109375,-1.9836424589157104,-0.3356933295726776,0.4882812201976776,60.0,41666.0,1.0
24184.9281633,-3133.98291015625,-28466.46875,-166521.390625,-171928.90625,-170320.65625,-158103.375,-151492.890625,-206335.9375,0.51025390625,0.788818359375,0.34814453125,-1.8920897245407104,-0.2441406100988388,0.4577636420726776,60.0,41667.0,1.0
24184.9281718,-2811.491943359375,-31141.8828125,-166777.734375,-172006.0625,-170559.546875,-158402.53125,-151988.375,-206773.671875,0.51123046875,0.78759765625,0.34716796875,-1.8310545682907104,-0.1525878757238388,0.5187987685203552,60.0,41668.0,1.0
24184.9300685,2203.703369140625,-14729.62109375,-167547.96875,-171112.171875,-169872.640625,-156166.1875,-149759.46875,-206063.15625,0.51025390625,0.785888671875,0.345947265625,-1.8920897245407104,-0.1831054538488388,0.3662109076976776,60.0,41669.0,1.0
24184.9326401,2267.539794921875,-8986.564453125,-167360.125,-170973.953125,-169579.390625,-155690.71875,-149076.484375,-205582.421875,0.509033203125,0.789306640625,0.347412109375,-1.8920897245407104,-0.2746581733226776,0.3662109076976776,60.0,41670.0,1.0
24184.9350862,-2571.166015625,-26002.947265625,-166605.625,-171830.65625,-170221.5,-157808.328125,-151172.1875,-206237.953125,0.50830078125,0.787353515625,0.346923828125,-1.9226073026657104,-0.3051757514476776,0.3967284858226776,60.0,41671.0,1.0
24184.9375708,-3403.902587890625,-32063.04296875,-166683.578125,-172113.71875,-170619.90625,-158621.578125,-152179.53125,-206836.078125,0.50927734375,0.785888671875,0.344970703125,-1.9531248807907104,-0.2441406100988388,0.4577636420726776,60.0,41672.0,1.0
24184.9569079,1425.5048828125,-17966.779296875,-167480.46875,-171283.921875,-170027.671875,-156573.984375,-150188.171875,-206272.09375,0.509765625,0.786376953125,0.346435546875,-1.9836424589157104,-0.3051757514476776,0.4577636420726776,60.0,41673.0,1.0
24184.9569162,2746.940185546875,-7705.7197265625,-167487.703125,-170925.234375,-169571.421875,-155557.6875,-148971.171875,-205627.75,0.510009765625,0.787109375,0.344970703125,-1.9226073026657104,-0.1831054538488388,0.4577636420726776,60.0,41674.0,1.0
24184.9588268,-1850.81396484375,-22995.564453125,-166729.890625,-171701.375,-170108.765625,-157444.265625,-150789.796875,-206131.109375,0.510986328125,0.785888671875,0.34765625,-1.8615721464157104,-0.1831054538488388,0.4882812201976776,60.0,41675.0,1.0
24184.9619188,-3822.05908203125,-32392.060546875,-166617.875,-172178.171875,-170644.046875,-158732.984375,-152258.65625,-206856.109375,0.509521484375,0.787353515625,0.348876953125,-2.014159917831421,-0.1525878757238388,0.3662109076976776,60.0,41676.0,1.0
24184.961927,501.4837646484375,-21297.81640625,-167385.515625,-171473.65625,-170188.78125,-157020.296875,-150647.28125,-206480.6875,0.509765625,0.7880859375,0.349609375,-1.9531248807907104,-0.2136230319738388,0.4577636420726776,60.0,41677.0,1.0
24184.9638233,3023.386474609375,-7282.7353515625,-167593.65625,-170913.15625,-169595.921875,-155512.53125,-148962.671875,-205711.15625,0.509765625,0.788330078125,0.349853515625,-1.8920897245407104,-0.3662109076976776,0.4272460639476776,60.0,41678.0,1.0
24184.9663223,-1044.98876953125,-19630.734375,-166879.390625,-171560.734375,-169994.40625,-157049.265625,-150388.890625,-206030.25,0.511474609375,0.787109375,0.348876953125,-1.8615721464157104,-0.3356933295726776,0.3967284858226776,60.0,41679.0,1.0
24184.9700839,-4055.232421875,-32139.486328125,-166581.296875,-172204.375,-170635.1875,-158742.0,-152235.234375,-206838.40625,0.508544921875,0.787841796875,0.346435546875,-1.8615721464157104,-0.2441406100988388,0.3356933295726776,60.0,41680.0,1.0
24184.9794112,-579.0890502929688,-24506.185546875,-167271.171875,-171671.953125,-170348.734375,-157479.140625,-151113.71875,-206678.453125,0.51123046875,0.786865234375,0.349853515625,-1.7700194120407104,-0.2136230319738388,0.3662109076976776,60.0,41681.0,1.0
24184.9794196,2995.84912109375,-7849.2177734375,-167680.296875,-170942.9375,-169659.21875,-155568.78125,-149064.15625,-205838.296875,0.51123046875,0.788330078125,0.349853515625,-1.8310545682907104,-0.3051757514476776,0.3051757514476776,60.0,41682.0,1.0
24184.9819013,-248.46200561523438,-16178.0146484375,-167048.453125,-171415.359375,-169886.859375,-156651.671875,-149995.859375,-205944.15625,0.510498046875,0.787353515625,0.34912109375,-1.8920897245407104,-0.2746581733226776,0.3662109076976776,60.0,41683.0,1.0
24184.9819073,-4099.0419921875,-31306.837890625,-166579.25,-172186.21875,-170592.359375,-158643.03125,-152104.609375,-206785.125,0.509033203125,0.787841796875,0.34912109375,-1.9531248807907104,-0.2441406100988388,0.3967284858226776,60.0,41684.0,1.0
24184.9900707,-1579.9107666015625,-27198.677734375,-167139.109375,-171855.328125,-170486.421875,-157903.1875,-151531.15625,-206840.546875,0.508544921875,0.787353515625,0.34912109375,-1.8920897245407104,-0.3051757514476776,0.3356933295726776,60.0,41685.0,1.0
24184.9938292,2814.889404296875,-9371.2822265625,-167710.59375,-171012.40625,-169747.203125,-155734.71875,-149268.171875,-205988.40625,0.51025390625,0.788330078125,0.34814453125,-1.8310545682907104,-0.2136230319738388,0.3662109076976776,60.0,41686.0,1.0
24184.998173,559.1512451171875,-13090.7021484375,-167205.09375,-171291.171875,-169800.125,-156317.296875,-149668.71875,-205888.90625,0.51123046875,0.7880859375,0.346923828125,-1.9226073026657104,-0.2136230319738388,0.3967284858226776,60.0,41687.0,1.0
24184.9981813,-3912.449462890625,-29916.560546875,-166598.015625,-172145.453125,-170530.9375,-158493.453125,-151916.328125,-206716.453125,0.50927734375,0.789794921875,0.3486328125,-1.8615721464157104,-0.1525878757238388,0.3662109076976776,60.0,41688.0,1.0
24185.0063183,-2494.27587890625,-29346.58984375,-167015.90625,-172022.078125,-170606.046875,-158283.34375,-151893.515625,-206977.796875,0.51025390625,0.789306640625,0.349365234375,-1.8920897245407104,-0.1831054538488388,0.3662109076976776,60.0,41689.0,1.0
24185.0100717,2391.4580078125,-11644.8125,-167718.203125,-171123.359375,-169868.078125,-155997.921875,-149564.921875,-206173.125,0.509033203125,0.7880859375,0.345458984375,-1.8615721464157104,-0.3356933295726776,0.4577636420726776,60.0,41690.0,1.0
24185.0138316,1303.6431884765625,-10377.1103515625,-167368.265625,-171185.84375,-169736.390625,-156028.5,-149393.796875,-205865.125,0.511474609375,0.786376953125,0.345947265625,-1.9226073026657104,-0.3356933295726776,0.3967284858226776,60.0,41691.0,1.0
24185.0456566,-3510.9228515625,-27893.994140625,-166659.796875,-172063.828125,-170441.09375,-158238.640625,-151628.34375,-206621.6875,0.51220703125,0.78662109375,0.345703125,-1.9836424589157104,-0.2441406100988388,0.4577636420726776,60.0,41692.0,1.0
24185.0456649,-3280.69970703125,-30853.634765625,-166904.421875,-172156.359375,-170692.40625,-158575.796875,-152163.265625,-207072.5625,0.5107421875,0.78662109375,0.34619140625,-1.8920897245407104,-0.2746581733226776,0.3967284858226776,60.0,41693.0,1.0
24185.0481618,1748.26416015625,-14568.0634765625,-167682.890625,-171267.125,-170007.734375,-156341.703125,-149939.625,-206373.3125,0.510009765625,0.7861328125,0.346923828125,-1.8920897245407104,-0.2746581733226776,0.5187987685203552,60.0,41694.0,1.0
24185.0481701,1922.8759765625,-8361.072265625,-167513.375,-171105.921875,-169697.140625,-155811.96875,-149200.859375,-205874.59375,0.511474609375,0.7861328125,0.347900390625,-1.9226073026657104,-0.2746581733226776,0.4272460639476776,60.0,41695.0,1.0
24185.0500685,-2934.158447265625,-25305.841796875,-166756.359375,-171955.015625,-170334.78125,-157916.15625,-151282.609375,-206516.8125,0.510498046875,0.78662109375,0.3486328125,-1.8920897245407104,-0.2441406100988388,0.3051757514476776,60.0,41696.0,1.0
24185.0525887,-3896.44580078125,-31724.81640625,-166817.78125,-172258.203125,-170750.078125,-158777.140625,-152341.625,-207131.484375,0.51025390625,0.786865234375,0.34716796875,-1.8615721464157104,-0.3356933295726776,0.3051757514476776,60.0,41697.0,1.0
24185.0550769,876.724853515625,-17873.9765625,-167618.328125,-171440.484375,-170167.765625,-156751.09375,-150379.140625,-206589.140625,0.510009765625,0.78662109375,0.34765625,-1.9531248807907104,-0.2441406100988388,0.4577636420726776,60.0,41698.0,1.0
24185.0575611,2334.05859375,-7054.74755859375,-167647.5625,-171054.78125,-169689.265625,-155666.40625,-149094.09375,-205921.71875,0.511474609375,0.7880859375,0.349853515625,-1.8920897245407104,-0.2746581733226776,0.3662109076976776,60.0,41699.0,1.0
24185.060072,-2227.9326171875,-22138.77734375,-166890.65625,-171816.265625,-170215.78125,-157523.296875,-150878.21875,-206403.171875,0.511474609375,0.787353515625,0.347412109375,-1.8005369901657104,-0.2136230319738388,0.4577636420726776,60.0,41700.0,1.0
24185.0625802,-4324.97314453125,-31961.296875,-166755.109375,-172310.859375,-170764.296875,-158861.546875,-152395.1875,-207137.734375,0.510009765625,0.786376953125,0.347412109375,-1.8310545682907104,-0.2746581733226776,0.5187987685203552,60.0,41701.0,1.0
24185.0650801,-69.916259765625,-21158.341796875,-167514.0,-171628.859375,-170324.234375,-157198.125,-150834.671875,-206787.078125,0.511474609375,0.787841796875,0.347412109375,-1.8615721464157104,-0.2441406100988388,0.4272460639476776,60.0,41702.0,1.0
24185.0675658,2574.831787109375,-6856.8896484375,-167744.671875,-171055.3125,-169721.625,-155652.015625,-149111.171875,-206012.109375,0.51123046875,0.78759765625,0.349365234375,-1.9226073026657104,-0.3356933295726776,0.3967284858226776,60.0,41703.0,1.0
24185.0700709,-1431.5845947265625,-18888.923828125,-167034.953125,-171683.9375,-170106.96875,-157153.609375,-150496.265625,-206310.1875,0.510498046875,0.788818359375,0.348876953125,-1.8310545682907104,-0.2746581733226776,0.3967284858226776,60.0,41704.0,1.0
24185.0731615,-4539.37109375,-31676.625,-166717.734375,-172338.9375,-170757.140625,-158882.109375,-152376.859375,-207122.984375,0.51171875,0.788818359375,0.35009765625,-1.9531248807907104,-0.2136230319738388,0.4882812201976776,60.0,41705.0,1.0
24185.0731696,-1088.8876953125,-24330.0546875,-167394.90625,-171826.1875,-170483.203125,-157662.6875,-151297.796875,-206981.8125,0.511962890625,0.78857421875,0.35107421875,-1.9226073026657104,-0.2441406100988388,0.4272460639476776,60.0,41706.0,1.0
24185.0863258,2599.150390625,-7533.521484375,-167816.8125,-171088.484375,-169783.765625,-155724.96875,-149221.0625,-206138.171875,0.51123046875,0.78662109375,0.350341796875,-1.9226073026657104,-0.2136230319738388,0.4882812201976776,60.0,41707.0,1.0
24185.0894045,-588.7449951171875,-15496.5546875,-167196.515625,-171545.625,-170002.546875,-156774.875,-150116.46875,-206229.625,0.509521484375,0.7861328125,0.3505859375,-1.8920897245407104,-0.3356933295726776,0.4272460639476776,60.0,41708.0,1.0
24185.0894121,-4538.0302734375,-30806.158203125,-166711.484375,-172325.4375,-170717.0,-158798.328125,-152253.828125,-207073.0,0.509765625,0.788330078125,0.349365234375,-1.9531248807907104,-0.2746581733226776,0.3662109076976776,60.0,41709.0,1.0
24185.0913199,-2089.08349609375,-27007.525390625,-167266.875,-172010.0,-170623.125,-158090.40625,-151716.40625,-207146.953125,0.50927734375,0.786865234375,0.34765625,-1.8920897245407104,-0.2746581733226776,0.3967284858226776,60.0,41710.0,1.0
24185.0956607,2389.312255859375,-9073.3779296875,-167854.09375,-171160.375,-169876.578125,-155894.9375,-149430.359375,-206295.796875,0.5087890625,0.78662109375,0.34521484375,-1.9226073026657104,-0.3356933295726776,0.3356933295726776,60.0,41711.0,1.0
24185.0956689,221.8187255859375,-12310.447265625,-167362.890625,-171417.40625,-169913.859375,-156426.28125,-149777.171875,-206175.265625,0.510009765625,0.787353515625,0.348388671875,-1.9226073026657104,-0.2136230319738388,0.4272460639476776,60.0,41712.0,1.0
24185.0988197,-4344.37451171875,-29316.013671875,-166742.5,-172274.640625,-170647.984375,-158617.90625,-152037.640625,-206997.453125,0.51123046875,0.786376953125,0.349853515625,-1.8310545682907104,-0.2746581733226776,0.4577636420726776,60.0,41713.0,1.0
24185.113162,-3059.1494140625,-29124.056640625,-167146.890625,-172176.03125,-170742.921875,-158463.234375,-152075.203125,-207283.203125,0.51171875,0.78759765625,0.3525390625,-1.8920897245407104,-0.2746581733226776,0.3662109076976776,60.0,41714.0,1.0
24185.1131709,1860.20166015625,-11444.3623046875,-167863.3125,-171273.109375,-170003.078125,-156163.234375,-149740.0625,-206487.578125,0.509765625,0.788818359375,0.35107421875,-1.8005369901657104,-0.2136230319738388,0.3967284858226776,60.0,41715.0,1.0
24185.1150698,926.0775146484375,-9534.181640625,-167531.78125,-171304.84375,-169847.15625,-156121.9375,-149493.84375,-206148.984375,0.509521484375,0.78662109375,0.347412109375,-1.8615721464157104,-0.2136230319738388,0.4272460639476776,60.0,41716.0,1.0
24185.1175667,-3914.863525390625,-27144.5859375,-166815.1875,-172178.265625,-170548.015625,-158324.828125,-151718.90625,-206890.96875,0.511474609375,0.787841796875,0.348388671875,-1.8920897245407104,-0.2136230319738388,0.4577636420726776,60.0,41717.0,1.0
24185.1211673,-3830.821044921875,-30545.001953125,-167034.234375,-172301.015625,-170821.34375,-158733.78125,-152327.0625,-207365.09375,0.51025390625,0.787109375,0.347412109375,-1.8615721464157104,-0.2746581733226776,0.4577636420726776,60.0,41718.0,1.0
24185.1294074,1210.212890625,-14418.7529296875,-167814.140625,-171419.109375,-170141.3125,-156514.609375,-150121.828125,-206681.578125,0.51025390625,0.786376953125,0.348388671875,-1.8310545682907104,-0.3662109076976776,0.4272460639476776,60.0,41719.0,1.0
24185.1294158,1514.911865234375,-7749.439453125,-167665.546875,-171236.640625,-169814.796875,-155930.875,-149327.359375,-206166.78125,0.512939453125,0.787353515625,0.348388671875,-1.9226073026657104,-0.3356933295726776,0.3662109076976776,60.0,41720.0,1.0
24185.1375648,-3341.317626953125,-24592.373046875,-166905.40625,-172077.234375,-170447.890625,-158025.234375,-151392.65625,-206795.125,0.513916015625,0.78759765625,0.348388671875,-1.8920897245407104,-0.3356933295726776,0.3967284858226776,60.0,41721.0,1.0
24185.1406596,-4415.00634765625,-31357.62109375,-166944.65625,-172397.84375,-170875.875,-158936.828125,-152499.609375,-207420.984375,0.510986328125,0.786865234375,0.348876953125,-1.9226073026657104,-0.3356933295726776,0.4272460639476776,60.0,41722.0,1.0
24185.1406674,385.25469970703125,-17722.431640625,-167740.8125,-171592.734375,-170298.484375,-156934.375,-150560.546875,-206892.578125,0.51025390625,0.785888671875,0.351318359375,-1.8615721464157104,-0.2136230319738388,0.4272460639476776,60.0,41723.0,1.0
24185.142579,1950.413330078125,-6635.51806640625,-167789.71875,-171194.703125,-169811.75,-155814.546875,-149240.015625,-206220.6875,0.510986328125,0.787109375,0.3505859375,-1.8615721464157104,-0.2746581733226776,0.3051757514476776,60.0,41724.0,1.0
24185.156907,-2608.985107421875,-21478.59765625,-167032.8125,-171944.640625,-170331.5625,-157652.140625,-151001.6875,-206687.75,0.510498046875,0.78759765625,0.3505859375,-1.9531248807907104,-0.2441406100988388,0.3662109076976776,60.0,41725.0,1.0
24185.1569155,-4827.0830078125,-31565.314453125,-166882.78125,-172455.875,-170894.828125,-159033.75,-152562.203125,-207433.59375,0.512451171875,0.78564453125,0.350341796875,-1.9226073026657104,-0.3051757514476776,0.4272460639476776,60.0,41726.0,1.0
24185.1588149,-608.7721557617188,-21067.59375,-167642.921875,-171786.671875,-170463.890625,-157391.6875,-151028.6875,-207101.171875,0.51171875,0.785400390625,0.350341796875,-1.9531248807907104,-0.2746581733226776,0.4577636420726776,60.0,41727.0,1.0
24185.1613273,2162.129150390625,-6417.18603515625,-167891.203125,-171192.28125,-169843.9375,-155792.46875,-149255.296875,-206313.671875,0.51220703125,0.78515625,0.348388671875,-1.9531248807907104,-0.2441406100988388,0.3967284858226776,60.0,41728.0,1.0
24185.1650706,-1796.5439453125,-18085.333984375,-167186.9375,-171803.46875,-170216.5,-157256.328125,-150599.890625,-206590.390625,0.510986328125,0.785400390625,0.348876953125,-1.8920897245407104,-0.2746581733226776,0.3967284858226776,60.0,41729.0,1.0
24185.1794079,-5018.86083984375,-31198.298828125,-166852.5625,-172473.84375,-170879.8125,-159024.71875,-152519.015625,-207410.34375,0.51123046875,0.7861328125,0.3505859375,-1.9531248807907104,-0.2746581733226776,0.4272460639476776,60.0,41730.0,1.0
24185.1794167,-1687.19921875,-24207.298828125,-167524.8125,-171982.015625,-170623.21875,-157848.921875,-151491.1875,-207295.09375,0.51171875,0.785400390625,0.35009765625,-1.9836424589157104,-0.2746581733226776,0.4577636420726776,60.0,41731.0,1.0
24185.1813084,2101.421630859375,-7123.5908203125,-167971.578125,-171227.421875,-169912.25,-155863.375,-149372.6875,-206446.625,0.51123046875,0.78466796875,0.344970703125,-1.9531248807907104,-0.2136230319738388,0.4272460639476776,60.0,41732.0,1.0
24185.1838156,-968.7246704101562,-14543.744140625,-167366.03125,-171658.546875,-170110.546875,-156850.875,-150201.671875,-206508.765625,0.51025390625,0.7861328125,0.345703125,-1.9531248807907104,-0.2136230319738388,0.3662109076976776,60.0,41733.0,1.0
24185.1863302,-4997.93994140625,-30210.3515625,-166862.84375,-172444.4375,-170828.3125,-158893.28125,-152356.734375,-207346.59375,0.5087890625,0.785888671875,0.344970703125,-1.9531248807907104,-0.3051757514476776,0.4272460639476776,60.0,41734.0,1.0
24185.2006533,-2695.262939453125,-26810.650390625,-167391.859375,-172161.375,-170757.140625,-158264.3125,-151899.59375,-207448.421875,0.51171875,0.787353515625,0.34912109375,-1.9226073026657104,-0.3356933295726776,0.4272460639476776,60.0,41735.0,1.0
24185.2006601,1856.0889892578125,-8830.3701171875,-167996.609375,-171308.15625,-170009.34375,-156053.984375,-149602.375,-206605.046875,0.512451171875,0.785400390625,0.34619140625,-1.8920897245407104,-0.2136230319738388,0.3967284858226776,60.0,41736.0,1.0
24185.2031594,-196.15892028808594,-11610.48046875,-167520.609375,-171543.296875,-170029.8125,-156535.359375,-149894.5625,-206463.4375,0.512451171875,0.785888671875,0.34814453125,-1.8310545682907104,-0.3662109076976776,0.3662109076976776,60.0,41737.0,1.0
24185.2031677,-4801.333984375,-28722.9765625,-166886.984375,-172400.625,-170764.109375,-158736.375,-152160.484375,-207277.65625,0.511962890625,0.7861328125,0.3486328125,-1.8005369901657104,-0.3662109076976776,0.4882812201976776,60.0,41738.0,1.0
24185.205079,-3603.101318359375,-28853.95703125,-167269.375,-172321.40625,-170872.5625,-158633.109375,-152249.0,-207578.78125,0.509521484375,0.78466796875,0.348388671875,-1.7395018339157104,-0.2441406100988388,0.4272460639476776,60.0,41739.0,1.0
24185.2194023,1384.7353515625,-11259.826171875,-167993.21875,-171423.578125,-170134.25,-156335.0,-149916.375,-206792.53125,0.51171875,0.785400390625,0.34716796875,-1.8615721464157104,-0.2746581733226776,0.3967284858226776,60.0,41740.0,1.0
24185.219411,535.5478515625,-9009.3623046875,-167676.984375,-171439.3125,-169966.875,-156255.875,-149629.921875,-206443.140625,0.51220703125,0.787353515625,0.345703125,-1.8920897245407104,-0.2746581733226776,0.4272460639476776,60.0,41741.0,1.0
24185.2218978,-4372.0908203125,-26565.67578125,-166955.109375,-172313.0,-170670.0625,-158467.34375,-151857.671875,-207180.296875,0.511474609375,0.787841796875,0.346435546875,-1.8005369901657104,-0.3051757514476776,0.4577636420726776,60.0,41742.0,1.0
24185.221904,-4379.2431640625,-30239.498046875,-167163.703125,-172450.15625,-170956.703125,-158912.859375,-152504.171875,-207668.1875,0.51171875,0.7861328125,0.346435546875,-1.8310545682907104,-0.3051757514476776,0.3967284858226776,60.0,41743.0,1.0
24185.2381554,678.9566040039062,-14277.1328125,-167951.828125,-171573.96875,-170280.875,-156697.625,-150308.15625,-206997.015625,0.511474609375,0.787841796875,0.346923828125,-1.9226073026657104,-0.3051757514476776,0.3662109076976776,60.0,41744.0,1.0
24185.2381618,1116.3355712890625,-7110.44775390625,-167822.890625,-171366.984375,-169935.5,-156053.546875,-149453.6875,-206462.265625,0.512939453125,0.786376953125,0.349365234375,-1.9531248807907104,-0.3356933295726776,0.3967284858226776,60.0,41745.0,1.0
24185.2406556,-3747.404296875,-23824.099609375,-167060.609375,-172197.9375,-170559.828125,-158126.171875,-151494.234375,-207072.65625,0.511962890625,0.785888671875,0.344482421875,-1.8615721464157104,-0.3356933295726776,0.4882812201976776,60.0,41746.0,1.0
24185.2406629,-4955.73974609375,-30976.478515625,-167080.734375,-172538.84375,-171003.546875,-159086.84375,-152652.234375,-207712.0,0.51025390625,0.78564453125,0.347412109375,-1.9531248807907104,-0.3356933295726776,0.4882812201976776,60.0,41747.0,1.0
24185.2431663,-190.79449462890625,-17568.203125,-167876.359375,-171748.3125,-170438.671875,-157114.078125,-150748.390625,-207203.984375,0.510986328125,0.7841796875,0.348388671875,-1.9531248807907104,-0.2441406100988388,0.4882812201976776,60.0,41748.0,1.0
24185.2431741,1501.9478759765625,-6090.4931640625,-167944.046875,-171331.578125,-169937.375,-155945.359375,-149380.015625,-206519.9375,0.51025390625,0.786376953125,0.3486328125,-1.9226073026657104,-0.2441406100988388,0.4272460639476776,60.0,41749.0,1.0
24185.2619054,-3018.379638671875,-20691.904296875,-167190.25,-172068.828125,-170446.546875,-157755.40625,-151109.0625,-206969.5625,0.510009765625,0.788330078125,0.34423828125,-1.8615721464157104,-0.2136230319738388,0.3662109076976776,60.0,41750.0,1.0
24185.2619141,-5349.5771484375,-31139.736328125,-167019.578125,-172595.984375,-171021.78125,-159183.046875,-152713.03125,-207725.40625,0.509765625,0.787109375,0.34814453125,-1.8310545682907104,-0.2746581733226776,0.3051757514476776,60.0,41751.0,1.0
24185.2643973,-1193.0467529296875,-20951.810546875,-167771.484375,-171941.34375,-170603.625,-157579.1875,-151221.265625,-207412.21875,0.510009765625,0.786865234375,0.34912109375,-1.8920897245407104,-0.2136230319738388,0.3051757514476776,60.0,41752.0,1.0
24185.2644034,1711.7861328125,-5965.85986328125,-168042.5625,-171330.78125,-169972.15625,-155934.890625,-149405.0625,-206616.578125,0.5107421875,0.78564453125,0.346923828125,-1.9531248807907104,-0.2136230319738388,0.3356933295726776,60.0,41753.0,1.0
24185.2706528,-2159.5361328125,-17242.404296875,-167348.859375,-171923.546875,-170329.234375,-157351.546875,-150698.328125,-206870.6875,0.51171875,0.7861328125,0.35009765625,-1.8310545682907104,-0.3051757514476776,0.3662109076976776,60.0,41754.0,1.0
24185.2706612,-5477.42919921875,-30702.447265625,-166996.5,-172604.65625,-170998.546875,-159148.453125,-152644.1875,-207691.25,0.511474609375,0.787109375,0.349853515625,-1.9531248807907104,-0.3051757514476776,0.4272460639476776,60.0,41755.0,1.0
24185.2794021,-2223.64111328125,-24020.884765625,-167648.015625,-172137.046875,-170759.46875,-158034.171875,-151677.78125,-207597.5625,0.509521484375,0.78759765625,0.348388671875,-1.9836424589157104,-0.2441406100988388,0.4882812201976776,60.0,41756.0,1.0
24185.2794109,1661.449951171875,-6826.4912109375,-168108.734375,-171375.03125,-170043.671875,-156029.125,-149541.40625,-206749.796875,0.509765625,0.787353515625,0.347900390625,-1.9226073026657104,-0.1831054538488388,0.4272460639476776,60.0,41757.0,1.0
24185.2937511,-1342.6246337890625,-13913.24609375,-167510.328125,-171789.703125,-170228.5625,-156981.859375,-150332.203125,-206796.828125,0.510009765625,0.785888671875,0.347900390625,-1.8920897245407104,-0.1831054538488388,0.3051757514476776,60.0,41758.0,1.0
24185.2937595,-5457.5810546875,-29715.662109375,-166995.796875,-172588.640625,-170955.890625,-159056.265625,-152513.921875,-207641.09375,0.51123046875,0.786376953125,0.34814453125,-1.8005369901657104,-0.2746581733226776,0.3967284858226776,60.0,41759.0,1.0
24185.2937635,-3219.187744140625,-26615.474609375,-167521.953125,-172318.1875,-170897.78125,-158455.90625,-152089.234375,-207758.671875,0.51318359375,0.787109375,0.34912109375,-1.8310545682907104,-0.3356933295726776,0.4272460639476776,60.0,41760.0,1.0
24185.2963139,1392.5137939453125,-8559.6455078125,-168139.75,-171455.59375,-170144.265625,-156221.796875,-149772.96875,-206914.484375,0.510498046875,0.787353515625,0.35107421875,-1.8005369901657104,-0.3967284858226776,0.3967284858226776,60.0,41761.0,1.0
24185.298821,-552.1775512695312,-10826.0234375,-167676.171875,-171667.125,-170144.96875,-156645.59375,-150006.234375,-206749.265625,0.51025390625,0.787353515625,0.3486328125,-1.7395018339157104,-0.3356933295726776,0.3662109076976776,60.0,41762.0,1.0
24185.3013292,-5217.2548828125,-28092.298828125,-167030.84375,-172530.265625,-170880.796875,-158859.125,-152280.921875,-207560.28125,0.510498046875,0.786865234375,0.349853515625,-1.8310545682907104,-0.2441406100988388,0.3662109076976776,60.0,41763.0,1.0
24185.3100739,-4151.70263671875,-28600.48828125,-167399.734375,-172471.703125,-171007.578125,-158808.171875,-152425.40625,-207881.421875,0.510498046875,0.78662109375,0.351318359375,-1.8310545682907104,-0.1831054538488388,0.4577636420726776,60.0,41764.0,1.0
24185.3131579,830.948486328125,-11087.896484375,-168132.875,-171574.59375,-170273.265625,-156512.28125,-150100.546875,-207105.546875,0.51025390625,0.786376953125,0.34814453125,-1.8005369901657104,-0.2441406100988388,0.4577636420726776,60.0,41765.0,1.0
24185.3131659,108.45066833496094,-8343.4599609375,-167836.671875,-171569.859375,-170089.625,-156377.640625,-149758.21875,-206738.625,0.5107421875,0.7880859375,0.34814453125,-1.8310545682907104,-0.0915527269244194,0.4882812201976776,60.0,41766.0,1.0
24185.3188104,-4787.38623046875,-25888.41796875,-167106.828125,-172440.3125,-170786.015625,-158579.734375,-151973.453125,-207464.078125,0.511474609375,0.78662109375,0.348388671875,-1.9836424589157104,-0.2441406100988388,0.4272460639476776,60.0,41767.0,1.0
24185.3281524,-4904.0625,-29918.080078125,-167296.28125,-172597.671875,-171088.390625,-159077.015625,-152671.8125,-207967.53125,0.510009765625,0.786865234375,0.3525390625,-1.8310545682907104,-0.2746581733226776,0.3967284858226776,60.0,41768.0,1.0
24185.3281608,135.27276611328125,-14122.01171875,-168088.078125,-171728.1875,-170421.0625,-156878.765625,-150497.078125,-207310.390625,0.51171875,0.786865234375,0.348388671875,-1.8615721464157104,-0.2441406100988388,0.3967284858226776,60.0,41769.0,1.0
24185.3306384,690.6689453125,-6526.35205078125,-167977.125,-171500.203125,-170058.96875,-156182.734375,-149589.234375,-206758.65625,0.51220703125,0.788330078125,0.349609375,-1.8615721464157104,-0.2746581733226776,0.3051757514476776,60.0,41770.0,1.0
24185.3306443,-4143.208984375,-23111.97265625,-167215.546875,-172322.5625,-170673.28125,-158231.9375,-151602.59375,-207355.09375,0.511474609375,0.78564453125,0.349853515625,-1.8310545682907104,-0.2136230319738388,0.3967284858226776,60.0,41771.0,1.0
24185.3438187,-5453.5576171875,-30598.734375,-167216.1875,-172682.34375,-171129.796875,-159238.65625,-152805.03125,-208006.421875,0.511474609375,0.7861328125,0.348388671875,-1.9531248807907104,-0.2746581733226776,0.4272460639476776,60.0,41772.0,1.0
24185.3463275,-747.084716796875,-17431.232421875,-168007.515625,-171904.5,-170578.78125,-157300.5,-150939.453125,-207516.46875,0.51025390625,0.785888671875,0.349853515625,-1.9226073026657104,-0.2441406100988388,0.3967284858226776,60.0,41773.0,1.0
24185.3488321,1064.3006591796875,-5553.24658203125,-168097.203125,-171465.78125,-170062.8125,-156079.015625,-149520.296875,-206817.921875,0.50927734375,0.786865234375,0.34716796875,-1.8310545682907104,-0.3051757514476776,0.4577636420726776,60.0,41774.0,1.0
24185.3513175,-3378.9580078125,-19912.1875,-167351.453125,-172184.078125,-170553.921875,-157840.609375,-151199.359375,-207245.5625,0.51025390625,0.785888671875,0.34814453125,-1.8310545682907104,-0.2136230319738388,0.3051757514476776,60.0,41775.0,1.0
24185.360652,-5793.48291015625,-30689.03515625,-167164.0625,-172720.78125,-171134.890625,-159291.234375,-152827.375,-208003.46875,0.509765625,0.78759765625,0.34912109375,-1.9226073026657104,-0.1220703050494194,0.3051757514476776,60.0,41776.0,1.0
24185.3606597,-1761.04931640625,-20782.83203125,-167900.59375,-172086.265625,-170741.765625,-157758.078125,-151408.125,-207721.203125,0.5078125,0.7880859375,0.348876953125,-1.7700194120407104,-0.2441406100988388,0.4577636420726776,60.0,41777.0,1.0
24185.3625623,1239.6278076171875,-5523.9208984375,-168192.421875,-171434.84375,-170101.609375,-156077.046875,-149557.234375,-206926.203125,0.510498046875,0.7880859375,0.346923828125,-1.9226073026657104,-0.2136230319738388,0.4882812201976776,60.0,41778.0,1.0
24185.3663118,-2547.741455078125,-16483.697265625,-167507.28125,-171969.59375,-170443.5,-157454.8125,-150806.421875,-207174.21875,0.509033203125,0.78662109375,0.34765625,-1.9531248807907104,-0.3356933295726776,0.5493163466453552,60.0,41779.0,1.0
24185.3750597,-5934.5673828125,-30215.447265625,-167138.21875,-172633.34375,-171117.1875,-159276.03125,-152772.921875,-208002.75,0.51025390625,0.788330078125,0.34619140625,-2.014159917831421,-0.3356933295726776,0.5187987685203552,60.0,41780.0,1.0
24185.3781494,-2781.36181640625,-23842.517578125,-167780.609375,-172179.515625,-170896.4375,-158211.203125,-151858.921875,-207932.390625,0.509765625,0.787353515625,0.34814453125,-1.9836424589157104,-0.3051757514476776,0.6103515028953552,60.0,41781.0,1.0
24185.3781565,1166.6717529296875,-6542.98193359375,-168256.96875,-171400.515625,-170177.78125,-156186.84375,-149706.8125,-207087.484375,0.51171875,0.786376953125,0.34716796875,-1.9226073026657104,-0.3051757514476776,0.5493163466453552,60.0,41782.0,1.0
24185.3800698,-1729.578125,-13220.9677734375,-167672.875,-171796.5,-170349.09375,-157097.8125,-150452.28125,-207119.140625,0.513427734375,0.786376953125,0.350341796875,-1.9226073026657104,-0.2746581733226776,0.4577636420726776,60.0,41783.0,1.0
24185.393812,-5908.1923828125,-29182.974609375,-167139.5625,-172606.703125,-171079.546875,-159198.78125,-152656.15625,-207965.921875,0.511474609375,0.783935546875,0.349365234375,-1.8310545682907104,-0.2136230319738388,0.3662109076976776,60.0,41784.0,1.0
24185.396901,-3764.659912109375,-26446.5859375,-167654.546875,-172351.265625,-171038.6875,-158645.71875,-152280.296875,-208104.671875,0.510498046875,0.784912109375,0.349609375,-1.9226073026657104,-0.3356933295726776,0.3967284858226776,60.0,41785.0,1.0
24185.3969094,908.106689453125,-8398.5341796875,-168284.234375,-171475.796875,-170283.640625,-156396.953125,-149952.578125,-207264.515625,0.511962890625,0.784912109375,0.344970703125,-1.8920897245407104,-0.2441406100988388,0.3662109076976776,60.0,41786.0,1.0
24185.3988042,-890.67236328125,-10195.7041015625,-167836.21875,-171662.484375,-170265.578125,-156765.125,-150127.5625,-207078.8125,0.5126953125,0.785888671875,0.34619140625,-1.8920897245407104,-0.2746581733226776,0.4577636420726776,60.0,41787.0,1.0
24185.4013223,-5565.04833984375,-27513.568359375,-167184.890625,-172524.546875,-170998.1875,-158974.203125,-152394.734375,-207880.796875,0.51123046875,0.78369140625,0.34716796875,-1.8310545682907104,-0.2746581733226776,0.4272460639476776,60.0,41788.0,1.0
24185.4159319,-4621.1787109375,-28373.751953125,-167534.734375,-172489.9375,-171147.046875,-158989.578125,-152604.390625,-208226.53125,0.510498046875,0.78564453125,0.347412109375,-1.8005369901657104,-0.2746581733226776,0.4272460639476776,60.0,41789.0,1.0
24185.4159395,388.8309631347656,-11000.0986328125,-168274.125,-171585.5,-170417.390625,-156697.71875,-150287.6875,-207462.828125,0.509765625,0.7880859375,0.34765625,-1.7700194120407104,-0.2441406100988388,0.4272460639476776,60.0,41790.0,1.0
24185.4175674,-209.56996154785156,-7758.4697265625,-167994.921875,-171553.140625,-170213.375,-156502.359375,-149883.828125,-207076.9375,0.511474609375,0.787353515625,0.34912109375,-1.8310545682907104,-0.2746581733226776,0.3051757514476776,60.0,41791.0,1.0
24185.4206363,-5116.76171875,-25238.16015625,-167260.53125,-172420.828125,-170901.171875,-158690.0625,-152080.46875,-207790.859375,0.51025390625,0.78759765625,0.35009765625,-1.7700194120407104,-0.3051757514476776,0.4577636420726776,60.0,41792.0,1.0
24185.4206427,-5381.94287109375,-29641.275390625,-167430.84375,-172600.09375,-171221.703125,-159245.375,-152837.84375,-208314.0625,0.509521484375,0.78662109375,0.34765625,-1.8005369901657104,-0.2746581733226776,0.4577636420726776,60.0,41793.0,1.0
24185.4225627,-396.9670104980469,-14148.744140625,-168228.359375,-171732.03125,-170569.203125,-157072.328125,-150696.1875,-207679.640625,0.509033203125,0.78759765625,0.3466796875,-1.8615721464157104,-0.2136230319738388,0.3967284858226776,60.0,41794.0,1.0
24185.43131,328.92828369140625,-6007.2548828125,-168138.765625,-171472.75,-170186.1875,-156310.671875,-149723.25,-207107.609375,0.5107421875,0.786865234375,0.34765625,-1.8615721464157104,-0.3356933295726776,0.4882812201976776,60.0,41795.0,1.0
24185.435641,-4454.79248046875,-22412.54296875,-167378.09375,-172288.5,-170788.703125,-158333.59375,-151706.484375,-207689.203125,0.510498046875,0.787109375,0.349609375,-2.014159917831421,-0.3051757514476776,0.4577636420726776,60.0,41796.0,1.0
24185.4356493,-5890.7578125,-30263.90625,-167359.140625,-172671.4375,-171262.5625,-159396.203125,-152964.265625,-208358.5,0.509033203125,0.787841796875,0.349853515625,-1.9836424589157104,-0.2441406100988388,0.5187987685203552,60.0,41797.0,1.0
24185.4374135,-1237.30322265625,-17478.349609375,-168144.3125,-171902.265625,-170727.375,-157501.03125,-151144.015625,-207890.09375,0.51220703125,0.78759765625,0.35009765625,-1.8615721464157104,-0.3356933295726776,0.4272460639476776,60.0,41798.0,1.0
24185.4450812,722.05078125,-5226.37451171875,-168249.359375,-171436.453125,-170194.140625,-156227.890625,-149674.53125,-207176.453125,0.51171875,0.787841796875,0.34814453125,-1.8920897245407104,-0.3662109076976776,0.4577636420726776,60.0,41799.0,1.0
24185.4488069,-3671.855224609375,-19238.86328125,-167504.421875,-172148.578125,-170672.46875,-157962.640625,-151321.140625,-207588.796875,0.510498046875,0.7880859375,0.349365234375,-1.8920897245407104,-0.2746581733226776,0.3356933295726776,60.0,41800.0,1.0
24185.4556414,-6194.29443359375,-30300.65234375,-167296.640625,-172708.890625,-171267.296875,-159468.171875,-152998.328125,-208360.828125,0.5126953125,0.786865234375,0.34765625,-1.9226073026657104,-0.2441406100988388,0.4272460639476776,60.0,41801.0,1.0
24185.4556487,-2195.299072265625,-20777.646484375,-168028.0,-172083.5,-170883.65625,-157960.140625,-151606.4375,-208089.5625,0.51171875,0.78662109375,0.3486328125,-1.9226073026657104,-0.3356933295726776,0.4577636420726776,60.0,41802.0,1.0
24185.4575556,905.7821655273438,-5307.01953125,-168337.25,-171436.28125,-170234.375,-156241.921875,-149721.46875,-207282.671875,0.5087890625,0.78564453125,0.346435546875,-1.8615721464157104,-0.3051757514476776,0.4272460639476776,60.0,41803.0,1.0
24185.4688112,-2805.14404296875,-15848.5498046875,-167659.90625,-172000.34375,-170560.890625,-157576.671875,-150925.609375,-207501.890625,0.510498046875,0.786865234375,0.3466796875,-1.9226073026657104,-0.3051757514476776,0.4272460639476776,60.0,41804.0,1.0
24185.4719019,-6298.3642578125,-29780.302734375,-167270.359375,-172712.03125,-171245.9375,-159443.578125,-152933.421875,-208334.359375,0.51220703125,0.786865234375,0.351318359375,-1.9531248807907104,-0.3051757514476776,0.4577636420726776,60.0,41805.0,1.0
24185.4719099,-3219.277099609375,-23819.80859375,-167906.140625,-172273.578125,-171040.828125,-158419.34375,-152061.96875,-208281.875,0.512451171875,0.784912109375,0.3486328125,-1.8920897245407104,-0.2746581733226776,0.4882812201976776,60.0,41806.0,1.0
24185.4738092,839.7103881835938,-6374.62841796875,-168397.515625,-171479.109375,-170311.53125,-156356.1875,-149875.96875,-207428.125,0.51220703125,0.787353515625,0.34619140625,-1.8005369901657104,-0.3051757514476776,0.4272460639476776,60.0,41807.0,1.0
24185.4825601,-1948.0887451171875,-12557.3896484375,-167824.953125,-171857.296875,-170461.46875,-157206.890625,-150560.203125,-207436.359375,0.51171875,0.785888671875,0.345703125,-1.9531248807907104,-0.3051757514476776,0.3662109076976776,60.0,41808.0,1.0
24185.4869059,-6190.4501953125,-28679.79296875,-167280.1875,-172674.921875,-171192.375,-159316.359375,-152769.984375,-208279.015625,0.51220703125,0.786865234375,0.34521484375,-1.8310545682907104,-0.2136230319738388,0.3662109076976776,60.0,41809.0,1.0
24185.486914,-4211.60546875,-26342.158203125,-167779.265625,-172443.890625,-171175.125,-158828.28125,-152463.140625,-208442.546875,0.51123046875,0.78515625,0.34375,-1.7700194120407104,-0.3051757514476776,0.3662109076976776,60.0,41810.0,1.0
24185.4900584,495.22528076171875,-8286.865234375,-168428.453125,-171558.671875,-170422.84375,-156564.234375,-150128.359375,-207607.84375,0.512451171875,0.787109375,0.34521484375,-1.8615721464157104,-0.2746581733226776,0.3967284858226776,60.0,41811.0,1.0
24185.4988121,-1147.1810302734375,-9406.59765625,-168001.0,-171719.703125,-170379.125,-156854.984375,-150225.546875,-207392.015625,0.51171875,0.78857421875,0.3447265625,-1.8615721464157104,-0.2746581733226776,0.4577636420726776,60.0,41812.0,1.0
24185.5031576,-5842.92529296875,-26863.580078125,-167341.4375,-172585.34375,-171102.609375,-159052.078125,-152479.765625,-208182.453125,0.51220703125,0.787353515625,0.34765625,-1.9226073026657104,-0.2746581733226776,0.4272460639476776,60.0,41813.0,1.0
24185.5031646,-5061.41845703125,-28148.447265625,-167664.015625,-172584.078125,-171274.625,-159146.84375,-152767.5625,-208551.4375,0.511962890625,0.78564453125,0.34765625,-1.8615721464157104,-0.2441406100988388,0.4577636420726776,60.0,41814.0,1.0
24185.5138173,-20.83182716369629,-10907.919921875,-168408.0625,-171682.421875,-170553.390625,-156870.890625,-150471.59375,-207797.828125,0.510986328125,0.785400390625,0.347900390625,-1.8920897245407104,-0.2441406100988388,0.4272460639476776,60.0,41815.0,1.0
24185.5168912,-465.36334228515625,-7197.8876953125,-168146.28125,-171628.859375,-170331.484375,-156622.4375,-150013.296875,-207391.921875,0.51171875,0.785888671875,0.34619140625,-1.8920897245407104,-0.3662109076976776,0.4882812201976776,60.0,41816.0,1.0
24185.5168995,-5356.4619140625,-24625.275390625,-167410.46875,-172497.359375,-171013.296875,-158799.046875,-152194.015625,-208096.0,0.51171875,0.78515625,0.348876953125,-1.9836424589157104,-0.2746581733226776,0.4577636420726776,60.0,41817.0,1.0
24185.5188052,-5724.013671875,-29353.294921875,-167562.453125,-172698.703125,-171349.734375,-159407.640625,-153000.828125,-208633.875,0.511474609375,0.78662109375,0.346435546875,-1.9836424589157104,-0.3051757514476776,0.4882812201976776,60.0,41818.0,1.0
24185.5275594,-730.6338500976562,-14075.3408203125,-168356.828125,-171838.515625,-170705.5625,-157259.734375,-150882.953125,-208009.453125,0.5107421875,0.787109375,0.347900390625,-1.9531248807907104,-0.2746581733226776,0.5187987685203552,60.0,41819.0,1.0
24185.5300658,82.61205291748047,-5588.83056640625,-168283.34375,-171564.3125,-170310.640625,-156456.5,-149869.890625,-207427.0625,0.510986328125,0.787109375,0.348388671875,-1.8615721464157104,-0.3051757514476776,0.4577636420726776,60.0,41820.0,1.0
24185.533805,-4695.744140625,-21786.783203125,-167519.71875,-172375.234375,-170903.59375,-158460.734375,-151829.59375,-207996.3125,0.51123046875,0.785400390625,0.348876953125,-1.9226073026657104,-0.1831054538488388,0.3967284858226776,60.0,41821.0,1.0
24185.5469024,-6229.34228515625,-29926.21484375,-167481.09375,-172773.359375,-171388.0,-159565.890625,-153127.25,-208674.28125,0.51025390625,0.78564453125,0.345458984375,-1.8310545682907104,-0.2746581733226776,0.4272460639476776,60.0,41822.0,1.0
24185.5469106,-1626.2236328125,-17445.0,-168269.390625,-172013.671875,-170866.125,-157696.296875,-151337.40625,-208223.140625,0.51171875,0.787109375,0.345458984375,-1.8920897245407104,-0.1831054538488388,0.5798339247703552,60.0,41823.0,1.0
24185.5488161,444.79974365234375,-4829.76513671875,-168396.703125,-171529.796875,-170321.734375,-156376.125,-149822.953125,-207499.03125,0.5107421875,0.7880859375,0.34912109375,-1.9531248807907104,-0.3051757514476776,0.4577636420726776,60.0,41824.0,1.0
24185.5513159,-3895.64111328125,-18536.392578125,-167657.84375,-172231.28125,-170787.359375,-158075.125,-151431.46875,-207896.171875,0.510986328125,0.788818359375,0.34716796875,-1.8615721464157104,-0.2441406100988388,0.3356933295726776,60.0,41825.0,1.0
24185.5556504,-6526.2626953125,-29909.943359375,-167428.96875,-172810.28125,-171393.546875,-159621.234375,-153148.703125,-208676.703125,0.51220703125,0.787841796875,0.34765625,-1.8920897245407104,-0.1831054538488388,0.3967284858226776,60.0,41826.0,1.0
24185.5556584,-2630.44287109375,-20751.896484375,-168158.96875,-172202.9375,-171029.828125,-158155.234375,-151805.90625,-208429.40625,0.510009765625,0.788330078125,0.34619140625,-1.9226073026657104,-0.2136230319738388,0.4577636420726776,60.0,41827.0,1.0
24185.5738098,571.8470458984375,-4940.00390625,-168491.65625,-171534.0,-170368.21875,-156385.6875,-149875.515625,-207610.515625,0.51025390625,0.787109375,0.348876953125,-1.8920897245407104,-0.1831054538488388,0.3967284858226776,60.0,41828.0,1.0
24185.5774871,-3023.65478515625,-14965.56640625,-167825.671875,-172075.09375,-170671.40625,-157659.5625,-151015.71875,-207800.421875,0.508544921875,0.785888671875,0.3486328125,-1.8310545682907104,-0.3051757514476776,0.3051757514476776,60.0,41829.0,1.0
24185.5774948,-6604.2255859375,-29289.638671875,-167415.828125,-172800.8125,-171361.984375,-159556.6875,-153051.703125,-208634.671875,0.510009765625,0.78662109375,0.34619140625,-1.8615721464157104,-0.2441406100988388,0.3356933295726776,60.0,41830.0,1.0
24185.577499,-3638.417236328125,-23694.28125,-168032.109375,-172387.75,-171177.453125,-158598.6875,-152248.375,-208605.796875,0.510498046875,0.7880859375,0.345458984375,-1.8310545682907104,-0.3356933295726776,0.3967284858226776,60.0,41831.0,1.0
24185.5800703,501.57318115234375,-6110.8779296875,-168541.015625,-171583.625,-170445.203125,-156512.734375,-150043.421875,-207751.78125,0.510498046875,0.78759765625,0.345703125,-1.8310545682907104,-0.3356933295726776,0.4882812201976776,60.0,41832.0,1.0
24185.5825666,-2193.689697265625,-11813.6123046875,-167982.9375,-171942.6875,-170576.546875,-157310.875,-150671.859375,-207738.375,0.51123046875,0.788330078125,0.346435546875,-1.8615721464157104,-0.3051757514476776,0.5798339247703552,60.0,41833.0,1.0
24185.5850563,-6491.8408203125,-28140.9375,-167424.765625,-172769.25,-171309.328125,-159437.765625,-152894.703125,-208578.078125,0.509765625,0.787841796875,0.349609375,-1.8310545682907104,-0.2746581733226776,0.5187987685203552,60.0,41834.0,1.0
24185.5938092,-4601.68798828125,-26135.181640625,-167908.546875,-172561.5625,-171309.140625,-159006.296875,-152643.203125,-208760.65625,0.509033203125,0.78662109375,0.345703125,-1.8005369901657104,-0.1831054538488388,0.5187987685203552,60.0,41835.0,1.0
24185.5969026,159.4126434326172,-8108.6767578125,-168565.328125,-171676.34375,-170556.6875,-156740.8125,-150308.34375,-207931.5,0.509765625,0.787353515625,0.34814453125,-1.8920897245407104,-0.2136230319738388,0.4882812201976776,60.0,41836.0,1.0
24185.5969104,-1400.82861328125,-8880.974609375,-168150.296875,-171824.3125,-170502.25,-156997.5,-150369.21875,-207706.546875,0.50927734375,0.7890625,0.348388671875,-1.8615721464157104,-0.1220703050494194,0.5493163466453552,60.0,41837.0,1.0
24185.5988185,-6149.859375,-26349.04296875,-167477.78125,-172698.703125,-171229.5625,-159216.3125,-152638.375,-208498.15625,0.51025390625,0.78857421875,0.3515625,-1.9226073026657104,-0.2441406100988388,0.4577636420726776,60.0,41838.0,1.0
24185.6131564,-5431.2060546875,-27924.3046875,-167792.9375,-172706.578125,-171412.046875,-159336.5625,-152955.234375,-208878.40625,0.5107421875,0.78662109375,0.348388671875,-1.8615721464157104,-0.2746581733226776,0.4882812201976776,60.0,41839.0,1.0
24185.613165,-387.0428161621094,-10794.6416015625,-168544.328125,-171801.421875,-170690.53125,-157052.75,-150655.765625,-208128.1875,0.5107421875,0.785888671875,0.349365234375,-1.8005369901657104,-0.2136230319738388,0.3967284858226776,60.0,41840.0,1.0
24185.6150594,-731.8855590820312,-6561.220703125,-168300.953125,-171725.953125,-170450.390625,-156744.46875,-150138.1875,-207701.890625,0.50927734375,0.78759765625,0.34716796875,-1.8615721464157104,-0.2441406100988388,0.4577636420726776,60.0,41841.0,1.0
24185.6175599,-5625.9345703125,-23933.4453125,-167562.1875,-172588.640625,-171125.234375,-158903.296875,-152298.796875,-208393.546875,0.50927734375,0.7880859375,0.345458984375,-1.9226073026657104,-0.1831054538488388,0.4577636420726776,60.0,41842.0,1.0
24185.6213081,-6137.431640625,-29057.0,-167696.65625,-172812.078125,-171480.53125,-159563.921875,-153161.140625,-208948.9375,0.508544921875,0.787109375,0.34521484375,-1.8615721464157104,-0.2136230319738388,0.4882812201976776,60.0,41843.0,1.0
24185.635651,-1227.468505859375,-14001.669921875,-168490.859375,-171958.859375,-170846.28125,-157438.359375,-151076.609375,-208342.046875,0.510009765625,0.78759765625,0.344970703125,-1.8920897245407104,-0.2441406100988388,0.4272460639476776,60.0,41844.0,1.0
24185.6356596,-279.57562255859375,-4986.2275390625,-168439.453125,-171660.0625,-170432.6875,-156573.796875,-150002.296875,-207738.640625,0.510009765625,0.788818359375,0.346435546875,-1.7395018339157104,-0.2746581733226776,0.4577636420726776,60.0,41845.0,1.0
24185.6375529,-5024.04638671875,-21006.52734375,-167678.328125,-172465.078125,-171017.5,-158555.421875,-151935.28125,-208292.25,0.510498046875,0.787353515625,0.34619140625,-1.8615721464157104,-0.3051757514476776,0.5187987685203552,60.0,41846.0,1.0
24185.6406561,-6671.45947265625,-29547.666015625,-167622.171875,-172885.125,-171516.65625,-159708.046875,-153279.953125,-208983.359375,0.51025390625,0.788330078125,0.346923828125,-1.8920897245407104,-0.2136230319738388,0.4577636420726776,60.0,41847.0,1.0
24185.6406647,-2115.011474609375,-17296.853515625,-168401.984375,-172139.828125,-171005.6875,-157874.765625,-151531.515625,-208549.296875,0.509521484375,0.787841796875,0.34716796875,-1.9836424589157104,-0.1831054538488388,0.4272460639476776,60.0,41848.0,1.0
24185.6424262,79.92984008789062,-4256.755859375,-168548.609375,-171634.765625,-170444.3125,-156502.90625,-149968.953125,-207811.78125,0.509033203125,0.787353515625,0.34765625,-1.8920897245407104,-0.2441406100988388,0.3967284858226776,60.0,41849.0,1.0
24185.6500604,-4230.64892578125,-17645.98828125,-167816.546875,-172323.203125,-170898.5,-158169.171875,-151536.609375,-208189.96875,0.509033203125,0.7861328125,0.34814453125,-1.9226073026657104,-0.2136230319738388,0.3356933295726776,60.0,41850.0,1.0
24185.6563089,-6979.73486328125,-29452.984375,-167571.125,-172919.265625,-171516.03125,-159759.1875,-153292.921875,-208979.515625,0.5087890625,0.784912109375,0.348876953125,-1.8615721464157104,-0.2136230319738388,0.3967284858226776,60.0,41851.0,1.0
24185.6594233,-3144.0859375,-20534.19140625,-168289.328125,-172329.546875,-171166.0,-158339.140625,-151997.140625,-208750.734375,0.51025390625,0.78564453125,0.34912109375,-1.8920897245407104,-0.1831054538488388,0.4577636420726776,60.0,41852.0,1.0
24185.6594307,146.35922241210938,-4447.4609375,-168632.921875,-171647.375,-170492.5,-156536.515625,-150036.1875,-207925.0625,0.51171875,0.7861328125,0.346435546875,-1.8920897245407104,-0.3051757514476776,0.3662109076976776,60.0,41853.0,1.0
24185.6863125,-3459.3349609375,-14119.3291015625,-167974.34375,-172178.359375,-170787.8125,-157783.390625,-151144.203125,-208103.609375,0.510986328125,0.78759765625,0.34814453125,-1.8615721464157104,-0.2136230319738388,0.4882812201976776,60.0,41854.0,1.0
24185.6888092,-7129.40234375,-28757.845703125,-167551.8125,-172915.34375,-171485.453125,-159708.671875,-153204.40625,-208942.59375,0.508544921875,0.7861328125,0.34814453125,-1.8920897245407104,-0.1831054538488388,0.4272460639476776,60.0,41855.0,1.0
24185.6913067,-4250.49755859375,-23408.53515625,-168161.921875,-172518.546875,-171316.828125,-158787.6875,-152441.859375,-208931.78125,0.509033203125,0.785400390625,0.347412109375,-1.9226073026657104,-0.3356933295726776,0.4882812201976776,60.0,41856.0,1.0
24185.6938163,-80.64509582519531,-5506.7548828125,-168687.1875,-171704.046875,-170578.59375,-156671.875,-150212.40625,-208076.15625,0.5087890625,0.787109375,0.34619140625,-1.8615721464157104,-0.3356933295726776,0.4272460639476776,60.0,41857.0,1.0
24185.6963235,-2776.712646484375,-10542.7822265625,-168141.1875,-172043.0,-170693.671875,-157419.40625,-150786.390625,-208040.484375,0.509521484375,0.788818359375,0.3466796875,-1.9226073026657104,-0.2441406100988388,0.5798339247703552,60.0,41858.0,1.0
24185.6988021,-7160.24755859375,-27368.4609375,-167569.15625,-172871.96875,-171425.28125,-159556.421875,-153016.46875,-208874.109375,0.509765625,0.788818359375,0.347412109375,-1.8615721464157104,-0.3051757514476776,0.5798339247703552,60.0,41859.0,1.0
24185.7013094,-5413.2353515625,-25677.328125,-168034.078125,-172685.03125,-171443.875,-159179.390625,-152825.5,-209077.515625,0.508056640625,0.787841796875,0.34814453125,-1.9836424589157104,-0.3356933295726776,0.5187987685203552,60.0,41860.0,1.0
24185.7038208,-683.2481689453125,-7283.36083984375,-168707.578125,-171792.390625,-170692.140625,-156896.46875,-150482.046875,-208254.15625,0.50927734375,0.78662109375,0.3486328125,-1.8615721464157104,-0.3356933295726776,0.4272460639476776,60.0,41861.0,1.0
24185.7063218,-2271.563232421875,-7175.62548828125,-168311.859375,-171912.8125,-170614.546875,-157082.796875,-150468.90625,-207999.171875,0.51220703125,0.785888671875,0.347412109375,-1.8920897245407104,-0.3051757514476776,0.3967284858226776,60.0,41862.0,1.0
24185.7088087,-7110.44775390625,-25184.78515625,-167628.703125,-172788.734375,-171338.28125,-159303.296875,-152735.28125,-208779.96875,0.51220703125,0.785888671875,0.34619140625,-1.8615721464157104,-0.2136230319738388,0.4577636420726776,60.0,41863.0,1.0
24185.7118881,-6545.216796875,-27292.5546875,-167919.359375,-172823.875,-171540.265625,-159492.3125,-153121.796875,-209181.21875,0.510498046875,0.788330078125,0.349609375,-1.8615721464157104,-0.2441406100988388,0.5798339247703552,60.0,41864.0,1.0
24185.7118968,-1542.0916748046875,-9776.2060546875,-168679.328125,-171925.515625,-170826.703125,-157221.734375,-150841.109375,-208447.109375,0.509033203125,0.7880859375,0.35107421875,-1.9226073026657104,-0.3051757514476776,0.4272460639476776,60.0,41865.0,1.0
24185.7138109,-1963.8243408203125,-4777.37255859375,-168455.1875,-171829.484375,-170570.734375,-156862.40625,-150269.171875,-208003.828125,0.509765625,0.78759765625,0.3505859375,-1.9836424589157104,-0.3356933295726776,0.4882812201976776,60.0,41866.0,1.0
24185.7175506,-6945.31298828125,-22483.353515625,-167707.46875,-172688.875,-171237.53125,-159017.109375,-152418.34375,-208682.6875,0.510498046875,0.7880859375,0.347900390625,-1.8615721464157104,-0.1525878757238388,0.3967284858226776,60.0,41867.0,1.0
24185.7318873,-7555.42626953125,-28283.00390625,-167823.078125,-172929.375,-171604.28125,-159724.59375,-153326.0,-209250.25,0.510986328125,0.78759765625,0.347412109375,-1.8920897245407104,-0.1831054538488388,0.3967284858226776,60.0,41868.0,1.0
24185.7318956,-2672.464111328125,-12759.806640625,-168619.328125,-172085.46875,-170978.78125,-157617.0,-151259.359375,-208655.515625,0.51025390625,0.786865234375,0.34716796875,-1.8615721464157104,-0.2746581733226776,0.3356933295726776,60.0,41869.0,1.0
24185.7344008,-1875.847900390625,-3000.7666015625,-168588.21875,-171770.125,-170554.453125,-156707.46875,-150140.15625,-208042.71875,0.509521484375,0.786865234375,0.34716796875,-1.9531248807907104,-0.2136230319738388,0.4577636420726776,60.0,41870.0,1.0
24185.7344087,-6720.81201171875,-19112.888671875,-167826.828125,-172562.71875,-171126.21875,-158660.828125,-152040.0625,-208578.984375,0.51123046875,0.785888671875,0.34814453125,-2.014159917831421,-0.2746581733226776,0.5493163466453552,60.0,41871.0,1.0
24185.736316,-8497.41796875,-28621.857421875,-167751.28125,-173001.265625,-171638.703125,-159861.375,-153431.234375,-209281.625,0.51171875,0.78662109375,0.34619140625,-1.9226073026657104,-0.3356933295726776,0.3967284858226776,60.0,41872.0,1.0
24185.7400565,-4051.8349609375,-15963.080078125,-168528.3125,-172271.34375,-171144.09375,-158064.21875,-151723.296875,-208868.5625,0.510986328125,0.7900390625,0.347900390625,-2.014159917831421,-0.2746581733226776,0.3967284858226776,60.0,41873.0,1.0
24185.7519016,-2021.4918212890625,-2136.916259765625,-168696.671875,-171749.375,-170573.953125,-156648.453125,-150117.1875,-208121.578125,0.51025390625,0.78857421875,0.347412109375,-1.9226073026657104,-0.2136230319738388,0.3967284858226776,60.0,41874.0,1.0
24185.7519101,-6426.21630859375,-15367.361328125,-167970.328125,-172422.53125,-171011.953125,-158274.859375,-151643.71875,-208479.375,0.510009765625,0.786865234375,0.346435546875,-1.9531248807907104,-0.2746581733226776,0.3356933295726776,60.0,41875.0,1.0
24185.7538054,-9279.2822265625,-28322.880859375,-167705.953125,-173031.203125,-171638.34375,-159897.59375,-153432.3125,-209273.3125,0.509521484375,0.787353515625,0.3486328125,-1.8615721464157104,-0.2441406100988388,0.2746581733226776,60.0,41876.0,1.0
24185.7600717,-5601.0791015625,-19156.072265625,-168414.765625,-172462.671875,-171308.78125,-158528.765625,-152196.078125,-209071.4375,0.510009765625,0.787109375,0.350341796875,-1.8920897245407104,-0.2746581733226776,0.3662109076976776,60.0,41877.0,1.0
24185.7750084,-2355.516357421875,-2092.212890625,-168786.796875,-171764.140625,-170629.46875,-156683.140625,-150196.046875,-208241.375,0.510498046875,0.7880859375,0.349609375,-1.9531248807907104,-0.2746581733226776,0.3662109076976776,60.0,41878.0,1.0
24185.7750171,-5778.28369140625,-11399.2109375,-168135.8125,-172275.546875,-170903.0625,-157878.328125,-151249.609375,-208393.734375,0.50927734375,0.786865234375,0.3505859375,-1.8920897245407104,-0.3051757514476776,0.3967284858226776,60.0,41879.0,1.0
24185.7750212,-9497.9716796875,-27441.86328125,-167695.3125,-173023.703125,-171606.0625,-159832.59375,-153334.859375,-209232.640625,0.51025390625,0.78662109375,0.34814453125,-1.9836424589157104,-0.3356933295726776,0.4882812201976776,60.0,41880.0,1.0
24185.7781314,-6734.22314453125,-22006.3671875,-168287.8125,-172648.640625,-171454.078125,-158968.03125,-152631.671875,-209243.453125,0.511474609375,0.78564453125,0.346435546875,-1.8615721464157104,-0.3356933295726776,0.4577636420726776,60.0,41881.0,1.0
