Time,FZ,C3,CZ,C4,PZ,PO7,OZ,PO8,AccX,AccY,AccZ,Gyro1,Gyro2,Gyro3,Battery,Counter,Validation
2879.9945535,322469.0,322624.46875,323283.40625,322816.875,322725.6875,322897.34375,323058.375,323178.0,0.55029296875,0.759033203125,0.3564453125,-1.8920897245407104,-0.1220703050494194,0.4577636420726776,93.33334350585938,26792.0,1.0
2880.0271144,322198.0,322354.71875,323013.21875,322547.125,322455.59375,322627.25,322787.625,322908.15625,0.55029296875,0.75732421875,0.360107421875,-1.7700194120407104,-0.0915527269244194,0.4882812201976776,93.33334350585938,26802.0,1.0
2880.073342,322574.9375,322731.65625,323390.0625,322923.625,322832.59375,323004.0,323165.125,323284.84375,0.548828125,0.760986328125,0.353271484375,-1.8310545682907104,-0.1831054538488388,0.4577636420726776,93.33334350585938,26813.0,1.0
2880.0883608,322568.21875,322725.15625,323384.15625,322917.09375,322826.71875,322997.75,323158.6875,323278.75,0.5498046875,0.759033203125,0.357666015625,-1.9226073026657104,-0.0915527269244194,0.5187987685203552,93.33334350585938,26817.0,1.0
2880.1177479,322568.15625,322724.875,323383.34375,322916.90625,322825.71875,322997.46875,323158.21875,323278.125,0.549560546875,0.755615234375,0.359619140625,-1.9226073026657104,-0.1220703050494194,0.4882812201976776,93.33334350585938,26822.0,1.0
2880.1308604,322177.875,322334.625,322993.4375,322526.46875,322435.65625,322607.03125,322767.625,322887.6875,0.549560546875,0.757080078125,0.357177734375,-1.8310545682907104,-0.1525878757238388,0.4272460639476776,93.33334350585938,26828.0,1.0
2880.1477651,322183.5,322339.875,322998.625,322532.46875,322440.8125,322612.5,322773.0625,322893.125,0.548583984375,0.75732421875,0.3583984375,-1.8615721464157104,-0.2441406100988388,0.4272460639476776,93.33334350585938,26832.0,1.0
2880.173966,322550.71875,322707.875,323365.75,322899.65625,322808.65625,322980.3125,323140.875,323260.6875,0.5478515625,0.759765625,0.354736328125,-1.8310545682907104,-0.0915527269244194,0.5493163466453552,93.33334350585938,26839.0,1.0
2880.2102081,322362.78125,322519.3125,323178.0,322711.71875,322620.53125,322791.84375,322952.40625,323072.65625,0.551025390625,0.75732421875,0.359619140625,-1.8005369901657104,-0.1525878757238388,0.5798339247703552,93.33334350585938,26848.0,1.0
2880.2514527,322519.875,322677.125,323335.25,322869.09375,322777.90625,322949.8125,323110.5,323230.375,0.549072265625,0.7587890625,0.35693359375,-1.8615721464157104,-0.2441406100988388,0.4882812201976776,93.33334350585938,26858.0,1.0
2880.3121171,322741.40625,322898.15625,323557.0625,323090.28125,322999.25,323170.65625,323331.21875,323451.125,0.548828125,0.760498046875,0.3564453125,-1.8310545682907104,-0.2441406100988388,0.4882812201976776,93.33334350585938,26868.0,1.0
2880.3171262,322406.59375,322563.21875,323221.96875,322755.71875,322664.53125,322836.375,322996.9375,323116.65625,0.54833984375,0.760986328125,0.358642578125,-1.8310545682907104,-0.2746581733226776,0.5493163466453552,93.33334350585938,26870.0,1.0
2880.3477413,322635.65625,322792.375,323450.84375,322984.96875,322893.21875,323065.25,323225.65625,323345.625,0.551513671875,0.756103515625,0.35791015625,-1.8920897245407104,-0.2746581733226776,0.5493163466453552,93.33334350585938,26881.0,1.0
2880.3802045,322473.1875,322629.46875,323288.21875,322821.78125,322730.6875,322902.34375,323063.28125,323183.09375,0.547607421875,0.759765625,0.357421875,-1.8005369901657104,-0.1220703050494194,0.5187987685203552,93.33334350585938,26890.0,1.0
2880.4452116,322980.5625,323137.40625,323796.59375,323329.96875,323238.53125,323410.625,323570.84375,323691.375,0.55126953125,0.757568359375,0.35791015625,-1.8615721464157104,-0.2441406100988388,0.4577636420726776,93.33334350585938,26905.0,1.0
2880.4639464,322541.9375,322698.5,323357.0625,322890.71875,322799.34375,322971.09375,323131.9375,323251.75,0.548828125,0.759521484375,0.359375,-1.7395018339157104,-0.0915527269244194,0.4882812201976776,93.33334350585938,26911.0,1.0
2880.4771087,322987.90625,323143.5625,323802.6875,323336.25,323244.96875,323416.71875,323577.375,323697.4375,0.55078125,0.759521484375,0.35888671875,-1.8310545682907104,-0.1525878757238388,0.5187987685203552,93.33334350585938,26913.0,1.0
2880.4964698,322977.0,323133.65625,323792.5625,323326.03125,323234.3125,323406.875,323567.25,323686.71875,0.547607421875,0.760009765625,0.357421875,-1.8615721464157104,-0.1831054538488388,0.5493163466453552,93.33334350585938,26918.0,1.0
2880.5071144,323033.0625,323189.25,323848.28125,323381.5625,323289.75,323461.9375,323622.59375,323742.59375,0.550537109375,0.758544921875,0.3564453125,-1.8310545682907104,-0.1220703050494194,0.4272460639476776,93.33334350585938,26922.0,1.0
2880.5351952,322799.34375,322956.0,323614.84375,323148.125,323056.84375,323228.6875,323389.625,323509.5,0.551025390625,0.7587890625,0.359375,-1.8615721464157104,-0.1220703050494194,0.4577636420726776,93.33334350585938,26927.0,1.0
2880.5433517,322877.84375,323034.03125,323692.875,323226.28125,323134.90625,323307.1875,323467.125,323587.375,0.551025390625,0.75732421875,0.357177734375,-1.8615721464157104,-0.3051757514476776,0.6103515028953552,93.33334350585938,26931.0,1.0
2880.5646944,322654.6875,322811.0625,323469.90625,323003.5625,322912.4375,323084.1875,323244.6875,323365.125,0.548095703125,0.759765625,0.361572265625,-1.8005369901657104,-0.1525878757238388,0.4272460639476776,93.33334350585938,26936.0,1.0
2880.5739416,323091.34375,323247.8125,323906.75,323439.875,323348.75,323520.9375,323681.625,323801.6875,0.54931640625,0.75830078125,0.358154296875,-1.7700194120407104,-0.2136230319738388,0.3356933295726776,93.33334350585938,26938.0,1.0
2880.5952012,322768.78125,322925.5,323584.6875,323117.625,323026.4375,323198.09375,323358.78125,323478.75,0.54931640625,0.760986328125,0.35498046875,-1.8920897245407104,0.0,0.4882812201976776,93.33334350585938,26944.0,1.0
2880.6058766,323037.25,323193.90625,323852.46875,323386.03125,323295.125,323466.5,323627.78125,323747.0625,0.54833984375,0.760009765625,0.35595703125,-1.8615721464157104,-0.0915527269244194,0.6103515028953552,93.33334350585938,26946.0,1.0
2880.6308404,322917.71875,323074.46875,323732.9375,323266.40625,323174.84375,323347.0625,323507.53125,323627.34375,0.55078125,0.75927734375,0.35888671875,-1.8310545682907104,-0.2441406100988388,0.5493163466453552,93.33334350585938,26952.0,1.0
2880.6508504,322731.125,322887.9375,323546.875,323080.09375,322988.625,323160.28125,323321.40625,323440.75,0.55029296875,0.758056640625,0.35791015625,-1.8615721464157104,-0.2441406100988388,0.5187987685203552,93.33334350585938,26957.0,1.0
2880.6883661,323168.0625,323324.625,323983.46875,323517.09375,323425.90625,323597.21875,323757.53125,323878.03125,0.549072265625,0.759521484375,0.35791015625,-1.7395018339157104,-0.0915527269244194,0.5493163466453552,93.33334350585938,26967.0,1.0
2880.7146086,322961.25,323118.0,323777.0,323310.65625,323219.03125,323390.40625,323551.4375,323670.8125,0.55078125,0.75830078125,0.35498046875,-1.8310545682907104,-0.2136230319738388,0.5493163466453552,93.33334350585938,26973.0,1.0
2880.7489499,323117.09375,323273.5625,323932.3125,323466.25,323374.78125,323546.25,323706.90625,323826.8125,0.55029296875,0.75732421875,0.35791015625,-1.9226073026657104,-0.1831054538488388,0.5493163466453552,93.33334350585938,26981.0,1.0
2880.7752015,323269.375,323426.28125,324085.03125,323618.59375,323526.9375,323698.96875,323859.625,323979.78125,0.54833984375,0.757568359375,0.35400390625,-1.7700194120407104,-0.0915527269244194,0.4577636420726776,93.33334350585938,26989.0,1.0
2880.8127457,323372.4375,323528.90625,324187.75,323720.875,323630.125,323801.78125,323962.71875,324081.8125,0.548828125,0.75830078125,0.356201171875,-1.8310545682907104,-0.1525878757238388,0.5187987685203552,93.33334350585938,26997.0,1.0
2880.8321065,323161.34375,323318.53125,323977.375,323510.9375,323419.375,323591.21875,323751.90625,323871.4375,0.548583984375,0.759033203125,0.35888671875,-1.8920897245407104,-0.1220703050494194,0.4882812201976776,93.33334350585938,27002.0,1.0
2880.8839361,323033.0625,323189.0625,323848.0,323382.09375,323290.28125,323462.21875,323622.6875,323742.25,0.55029296875,0.75732421875,0.35888671875,-1.8615721464157104,-0.2746581733226776,0.4577636420726776,93.33334350585938,27016.0,1.0
2880.9471077,323282.15625,323438.34375,324097.90625,323631.28125,323539.71875,323712.28125,323872.5,323992.03125,0.55224609375,0.7587890625,0.35302734375,-1.7700194120407104,-0.2441406100988388,0.5187987685203552,93.33334350585938,27027.0,1.0
2880.962106,323515.40625,323672.59375,324331.34375,323864.71875,323774.0625,323946.0,324106.46875,324226.03125,0.55078125,0.75830078125,0.356689453125,-1.8310545682907104,-0.0915527269244194,0.4577636420726776,93.33334350585938,27034.0,1.0
2880.9652054,323116.46875,323272.75,323931.78125,323465.875,323374.5,323546.34375,323706.75,323826.375,0.549072265625,0.757568359375,0.357666015625,-1.7700194120407104,-0.2136230319738388,0.3356933295726776,93.33334350585938,27036.0,1.0
2880.9977436,323553.40625,323710.125,324369.5,323903.09375,323811.78125,323984.15625,324144.46875,324264.09375,0.548095703125,0.758544921875,0.35546875,-1.8310545682907104,-0.1220703050494194,0.4272460639476776,93.33334350585938,27043.0,1.0
2881.0089656,323425.09375,323581.46875,324240.59375,323774.34375,323682.6875,323854.8125,324015.65625,324135.09375,0.55078125,0.756103515625,0.3603515625,-1.8005369901657104,-0.1831054538488388,0.4882812201976776,93.33334350585938,27046.0,1.0
2881.0264419,323618.3125,323775.125,324434.34375,323967.8125,323876.4375,324048.46875,324209.375,324328.75,0.54833984375,0.7578125,0.358154296875,-1.8615721464157104,-0.1220703050494194,0.6103515028953552,93.33334350585938,27051.0,1.0
2881.0364451,323624.9375,323781.65625,324440.875,323974.34375,323883.21875,324054.96875,324215.46875,324335.0,0.550048828125,0.761474609375,0.357666015625,-1.8920897245407104,-0.2136230319738388,0.5493163466453552,93.33334350585938,27055.0,1.0
2881.0596115,323554.84375,323711.375,324370.59375,323904.5,323812.6875,323984.78125,324145.375,324264.90625,0.550537109375,0.758056640625,0.3564453125,-1.8005369901657104,-0.2441406100988388,0.5493163466453552,93.33334350585938,27060.0,1.0
2881.0658553,323230.375,323387.1875,324046.3125,323579.875,323489.125,323660.53125,323821.0,323940.90625,0.55078125,0.75927734375,0.3583984375,-1.7700194120407104,-0.0610351525247097,0.5493163466453552,93.33334350585938,27061.0,1.0
2881.0983073,323669.71875,323827.0,324485.75,324019.5,323927.65625,324099.9375,324260.78125,324379.625,0.551025390625,0.759033203125,0.358154296875,-1.8920897245407104,-0.0915527269244194,0.4882812201976776,93.33334350585938,27068.0,1.0
2881.1039428,323516.5625,323673.3125,324332.15625,323865.53125,323774.25,323946.1875,324106.84375,324226.375,0.551025390625,0.7578125,0.35791015625,-1.8920897245407104,-0.2136230319738388,0.5493163466453552,93.33334350585938,27071.0,1.0
2881.1308504,323723.71875,323880.90625,324539.5625,324073.40625,323981.84375,324154.03125,324314.09375,324433.875,0.549072265625,0.757080078125,0.359375,-1.8310545682907104,-0.1831054538488388,0.6103515028953552,93.33334350585938,27076.0,1.0
2881.1445998,323603.9375,323760.46875,324420.21875,323953.0625,323861.40625,324033.53125,324194.375,324314.15625,0.549072265625,0.7587890625,0.361328125,-1.8920897245407104,-0.1525878757238388,0.3356933295726776,93.33334350585938,27081.0,1.0
2881.195119,323782.125,323938.84375,324597.9375,324131.25,324039.59375,324211.8125,324372.65625,324492.375,0.55126953125,0.759033203125,0.359375,-1.9531248807907104,-0.0915527269244194,0.5187987685203552,93.33334350585938,27093.0,1.0
2881.2177484,323565.5625,323722.84375,324381.59375,323914.6875,323823.5,323995.53125,324155.84375,324275.8125,0.552001953125,0.7587890625,0.357421875,-1.8615721464157104,-0.1831054538488388,0.4882812201976776,93.33334350585938,27098.0,1.0
2881.2477336,323722.5625,323879.28125,324537.78125,324071.15625,323980.0625,324152.34375,324312.84375,324432.375,0.550048828125,0.758056640625,0.3544921875,-1.8005369901657104,-0.0610351525247097,0.5187987685203552,93.33334350585938,27106.0,1.0
2881.283305,323849.15625,324006.25,324665.0,324198.375,324106.9375,324279.5625,324439.6875,324559.59375,0.548583984375,0.760498046875,0.355712890625,-1.8005369901657104,-0.1831054538488388,0.5798339247703552,93.33334350585938,27114.0,1.0
2881.3127433,323447.5625,323604.5625,324263.3125,323796.9375,323705.65625,323877.59375,324038.4375,324157.53125,0.55029296875,0.757568359375,0.3583984375,-1.8310545682907104,-0.2136230319738388,0.3967284858226776,93.33334350585938,27124.0,1.0
2881.3446131,323840.21875,323997.125,324656.0625,324189.71875,324098.15625,324270.0,324430.9375,324550.84375,0.552001953125,0.75732421875,0.359619140625,-1.8615721464157104,-0.1831054538488388,0.6408690810203552,93.33334350585938,27131.0,1.0
2881.3801844,323963.96875,324120.78125,324779.71875,324313.1875,324221.8125,324394.28125,324554.84375,324674.21875,0.550048828125,0.760498046875,0.355224609375,-1.8005369901657104,-0.1831054538488388,0.4882812201976776,93.33334350585938,27139.0,1.0
2881.4433517,324038.25,324195.625,324854.28125,324387.5625,324296.46875,324468.5625,324629.0625,324748.6875,0.551513671875,0.757080078125,0.358642578125,-1.8615721464157104,-0.1525878757238388,0.4882812201976776,93.33334350585938,27155.0,1.0
2881.4583631,324022.78125,324180.40625,324839.09375,324372.375,324281.34375,324453.1875,324613.78125,324733.5,0.5498046875,0.758056640625,0.359375,-1.8005369901657104,-0.2441406100988388,0.5493163466453552,93.33334350585938,27160.0,1.0
2881.4714405,323987.5625,324144.65625,324803.40625,324337.15625,324245.40625,324417.53125,324578.5625,324697.90625,0.54833984375,0.75634765625,0.3623046875,-1.7700194120407104,-0.2136230319738388,0.5187987685203552,93.33334350585938,27163.0,1.0
2881.5014346,323846.125,324003.65625,324661.875,324195.625,324103.96875,324276.4375,324437.03125,324556.03125,0.5478515625,0.759765625,0.360107421875,-1.7700194120407104,-0.2441406100988388,0.5493163466453552,93.33334350585938,27169.0,1.0
2881.5152077,324139.5625,324296.65625,324955.5625,324488.875,324397.3125,324569.78125,324730.4375,324849.90625,0.551513671875,0.760498046875,0.356689453125,-1.8310545682907104,-0.2136230319738388,0.5798339247703552,93.33334350585938,27172.0,1.0
2881.5451954,324003.125,324159.9375,324819.0625,324352.53125,324261.15625,324433.1875,324593.75,324713.03125,0.55126953125,0.75830078125,0.358642578125,-1.9226073026657104,-0.2136230319738388,0.5493163466453552,93.33334350585938,27177.0,1.0
2881.5483165,324078.21875,324235.59375,324894.25,324427.90625,324336.4375,324508.375,324668.75,324788.46875,0.55126953125,0.755859375,0.356689453125,-1.9226073026657104,-0.2136230319738388,0.5798339247703552,93.33334350585938,27181.0,1.0
2881.5845448,323816.96875,323974.0625,324632.46875,324166.03125,324075.09375,324246.59375,324407.34375,324527.125,0.55029296875,0.755859375,0.357666015625,-1.8005369901657104,-0.2746581733226776,0.4272460639476776,93.33334350585938,27186.0,1.0
2881.584551,323762.09375,323918.90625,324577.5625,324110.9375,324019.75,324191.40625,324352.25,324471.875,0.5517578125,0.758056640625,0.355224609375,-1.8310545682907104,-0.1831054538488388,0.4882812201976776,93.33334350585938,27187.0,1.0
2881.587105,324193.375,324350.5625,325009.5,324542.78125,324451.78125,324623.6875,324784.09375,324903.4375,0.548583984375,0.7587890625,0.35888671875,-1.8615721464157104,-0.2746581733226776,0.5493163466453552,93.33334350585938,27189.0,1.0
2881.5971031,324228.96875,324386.0625,325044.625,324577.9375,324487.09375,324659.09375,324819.5,324938.84375,0.55078125,0.7587890625,0.3583984375,-1.8920897245407104,-0.2441406100988388,0.5187987685203552,93.33334350585938,27193.0,1.0
2881.6314478,324125.25,324282.15625,324940.65625,324474.75,324382.9375,324554.84375,324715.6875,324834.96875,0.55029296875,0.758056640625,0.35986328125,-1.8920897245407104,-0.1525878757238388,0.4882812201976776,93.33334350585938,27202.0,1.0
2881.6539321,324197.6875,324355.03125,325013.4375,324547.4375,324455.875,324628.09375,324788.5625,324907.5625,0.551025390625,0.75830078125,0.35693359375,-1.8310545682907104,-0.2136230319738388,0.4882812201976776,93.33334350585938,27206.0,1.0
2881.6752037,324306.84375,324464.03125,325122.59375,324656.15625,324564.78125,324737.0625,324897.46875,325016.90625,0.55029296875,0.755615234375,0.362548828125,-1.7395018339157104,-0.1525878757238388,0.5798339247703552,93.33334350585938,27214.0,1.0
2881.7089316,324356.375,324513.90625,325172.46875,324706.21875,324614.75,324786.96875,324947.0,325066.625,0.550048828125,0.757568359375,0.3583984375,-1.9836424589157104,-0.2441406100988388,0.5493163466453552,93.33334350585938,27222.0,1.0
2881.7489355,323988.90625,324145.8125,324804.65625,324338.40625,324246.84375,324418.78125,324579.0,324698.25,0.551025390625,0.756591796875,0.35693359375,-1.9836424589157104,-0.1220703050494194,0.4577636420726776,93.33334350585938,27232.0,1.0
2881.7777362,324417.96875,324574.71875,325233.90625,324766.9375,324675.90625,324848.03125,325008.3125,325127.78125,0.552978515625,0.7607421875,0.35546875,-1.9226073026657104,-0.1525878757238388,0.4577636420726776,93.33334350585938,27239.0,1.0
2881.8102013,324287.875,324444.875,325104.15625,324637.28125,324546.09375,324718.03125,324878.5,324998.03125,0.55078125,0.756591796875,0.35693359375,-1.8920897245407104,-0.1220703050494194,0.4272460639476776,93.33334350585938,27248.0,1.0
2881.8333642,324048.28125,324205.8125,324863.9375,324397.84375,324306.75,324478.3125,324639.15625,324758.15625,0.549560546875,0.759765625,0.362060546875,-1.8310545682907104,-0.2441406100988388,0.4882812201976776,93.33334350585938,27253.0,1.0
2881.8908292,324557.625,324715.0625,325373.71875,324907.03125,324815.9375,324988.21875,325148.6875,325268.21875,0.551513671875,0.7587890625,0.357421875,-1.8920897245407104,-0.1831054538488388,0.5798339247703552,93.33334350585938,27268.0,1.0
2881.9581887,324513.375,324670.46875,325329.21875,324862.25,324771.40625,324944.21875,325104.15625,325223.96875,0.55029296875,0.7587890625,0.35693359375,-1.8310545682907104,-0.2136230319738388,0.7019042372703552,93.33334350585938,27284.0,1.0
2881.9839453,324367.5625,324524.625,325183.5625,324716.59375,324626.1875,324797.59375,324958.09375,325077.71875,0.550048828125,0.760009765625,0.35888671875,-1.8920897245407104,-0.1525878757238388,0.4882812201976776,93.33334350585938,27290.0,1.0
2881.9897627,324665.0,324822.8125,325481.65625,325014.3125,324923.5625,325095.9375,325256.15625,325375.53125,0.548828125,0.758056640625,0.35888671875,-1.8920897245407104,-0.1525878757238388,0.5187987685203552,93.33334350585938,27293.0,1.0
2882.0227433,324226.1875,324383.46875,325042.40625,324575.5,324484.59375,324656.96875,324817.1875,324936.09375,0.550048828125,0.760498046875,0.359375,-1.9226073026657104,-0.3356933295726776,0.4577636420726776,93.33334350585938,27299.0,1.0
2882.0257794,324662.78125,324820.21875,325479.21875,325012.09375,324921.4375,325093.71875,325253.9375,325373.09375,0.54931640625,0.758056640625,0.36083984375,-1.8310545682907104,-0.3051757514476776,0.5187987685203552,93.33334350585938,27301.0,1.0
2882.0427281,324663.125,324820.21875,325478.875,325012.15625,324921.34375,325093.4375,325254.09375,325373.375,0.550537109375,0.7587890625,0.356201171875,-1.8310545682907104,-0.0915527269244194,0.6103515028953552,93.33334350585938,27306.0,1.0
2882.0564357,324608.9375,324766.46875,325424.6875,324958.0,324866.96875,325039.25,325199.75,325319.375,0.550537109375,0.761474609375,0.3564453125,-1.8920897245407104,-0.2441406100988388,0.6103515028953552,93.33334350585938,27309.0,1.0
2882.0758202,324747.875,324905.15625,325564.15625,325097.28125,325005.8125,325178.46875,325339.125,325457.96875,0.550048828125,0.760009765625,0.35546875,-1.8310545682907104,-0.0915527269244194,0.5187987685203552,93.33334350585938,27314.0,1.0
2882.0927178,324770.25,324927.5,325586.53125,325119.375,325028.0,325200.28125,325360.9375,325480.125,0.55224609375,0.75830078125,0.3544921875,-1.9531248807907104,-0.0915527269244194,0.5187987685203552,93.33334350585938,27318.0,1.0
2882.1189355,324438.28125,324595.28125,325253.65625,324787.21875,324695.84375,324868.40625,325028.90625,325148.0625,0.549560546875,0.760498046875,0.358154296875,-1.9531248807907104,-0.1220703050494194,0.4882812201976776,93.33334350585938,27325.0,1.0
2882.139757,324715.15625,324872.59375,325530.71875,325064.125,324973.0,325145.21875,325305.96875,325424.96875,0.54931640625,0.755615234375,0.35595703125,-1.9836424589157104,-0.0915527269244194,0.4882812201976776,93.33334350585938,27327.0,1.0
2882.1614467,324530.1875,324687.625,325346.8125,324879.9375,324788.46875,324960.6875,325121.34375,325240.53125,0.549072265625,0.757568359375,0.35791015625,-1.8310545682907104,-0.2136230319738388,0.5493163466453552,93.33334350585938,27336.0,1.0
2882.2245856,324411.09375,324569.15625,325227.1875,324761.28125,324669.75,324842.21875,325002.25,325121.78125,0.54931640625,0.7568359375,0.358154296875,-1.8005369901657104,-0.1831054538488388,0.4882812201976776,93.33334350585938,27345.0,1.0
2882.2295911,324764.25,324921.875,325580.625,325114.0,325022.625,325194.75,325355.40625,325474.5,0.549560546875,0.7587890625,0.35791015625,-1.9226073026657104,-0.1525878757238388,0.4577636420726776,93.33334350585938,27348.0,1.0
2882.2608493,324938.21875,325095.3125,325754.59375,325287.71875,325196.09375,325368.625,325528.84375,325648.46875,0.5498046875,0.759765625,0.354736328125,-1.8310545682907104,-0.2136230319738388,0.5187987685203552,93.33334350585938,27360.0,1.0
2882.3051813,324668.21875,324825.5,325483.96875,325017.90625,324925.90625,325098.71875,325258.84375,325378.21875,0.552490234375,0.7587890625,0.359130859375,-1.8615721464157104,-0.1525878757238388,0.4882812201976776,93.33334350585938,27371.0,1.0
2882.3295905,324621.1875,324778.28125,325437.3125,324970.59375,324878.96875,325051.25,325212.0,325331.34375,0.55078125,0.7587890625,0.358154296875,-1.8615721464157104,-0.1831054538488388,0.4272460639476776,93.33334350585938,27378.0,1.0
2882.3601842,325048.125,325205.8125,325863.9375,325397.96875,325306.0625,325478.53125,325638.46875,325758.4375,0.548583984375,0.759521484375,0.3544921875,-1.8005369901657104,-0.2746581733226776,0.4882812201976776,93.33334350585938,27385.0,1.0
2882.4282765,325070.28125,325228.1875,325887.375,325420.21875,325328.6875,325501.0625,325661.34375,325780.8125,0.55126953125,0.7578125,0.35791015625,-1.8310545682907104,-0.2746581733226776,0.5798339247703552,93.33334350585938,27402.0,1.0
2882.4489194,324812.25,324969.78125,325629.0,325162.28125,325070.375,325242.65625,325403.6875,325522.59375,0.548828125,0.76025390625,0.358154296875,-1.7700194120407104,-0.2746581733226776,0.4577636420726776,93.33334350585938,27407.0,1.0
2882.4577348,324997.78125,325155.125,325814.59375,325347.90625,325256.0,325428.0,325589.03125,325708.21875,0.548828125,0.75927734375,0.35791015625,-1.8310545682907104,-0.1220703050494194,0.5798339247703552,93.33334350585938,27409.0,1.0
2882.4639367,324889.9375,325047.65625,325706.40625,325239.8125,325148.15625,325320.34375,325480.84375,325600.375,0.54638671875,0.758544921875,0.3583984375,-1.8310545682907104,-0.1220703050494194,0.5798339247703552,93.33334350585938,27411.0,1.0
2882.4908321,325195.375,325353.0,326012.0,325545.65625,325453.5,325626.125,325786.625,325906.15625,0.548095703125,0.758056640625,0.35546875,-1.8920897245407104,-0.0915527269244194,0.6103515028953552,93.33334350585938,27418.0,1.0
2882.5427264,324812.09375,324969.4375,325628.8125,325161.65625,325070.46875,325242.5625,325403.25,325522.59375,0.548583984375,0.75830078125,0.357421875,-1.8920897245407104,-0.1831054538488388,0.5187987685203552,93.33334350585938,27429.0,1.0
2882.5470939,324933.5,325090.59375,325749.78125,325283.0625,325191.4375,325363.4375,325524.28125,325643.65625,0.548828125,0.76025390625,0.356689453125,-1.8615721464157104,-0.1525878757238388,0.4882812201976776,93.33334350585938,27432.0,1.0
2882.5977247,325168.09375,325326.15625,325985.375,325518.5625,325426.65625,325599.03125,325759.53125,325878.875,0.55126953125,0.75537109375,0.35595703125,-2.014159917831421,-0.1831054538488388,0.5187987685203552,93.33334350585938,27444.0,1.0
2882.6258449,325302.65625,325460.28125,326119.375,325652.25,325560.78125,325733.59375,325893.625,326013.1875,0.549560546875,0.758544921875,0.357177734375,-1.8920897245407104,-0.1220703050494194,0.5798339247703552,93.33334350585938,27452.0,1.0
2882.6914213,325406.375,325564.09375,326223.1875,325756.21875,325664.75,325837.3125,325997.71875,326116.71875,0.548828125,0.759765625,0.357421875,-1.8920897245407104,-0.1220703050494194,0.4882812201976776,93.33334350585938,27468.0,1.0
2882.714532,325030.40625,325188.125,325847.40625,325380.15625,325289.15625,325461.0,325621.84375,325740.9375,0.5498046875,0.759765625,0.357421875,-1.8920897245407104,-0.1525878757238388,0.5187987685203552,93.33334350585938,27474.0,1.0
2882.7220804,325420.21875,325578.125,326236.875,325769.8125,325678.4375,325850.8125,326011.375,326130.65625,0.5517578125,0.759033203125,0.357177734375,-1.8615721464157104,-0.1220703050494194,0.5798339247703552,93.33334350585938,27477.0,1.0
2882.7501712,325171.6875,325329.21875,325988.6875,325521.625,325430.5,325602.4375,325762.75,325882.09375,0.551025390625,0.75732421875,0.358642578125,-1.8920897245407104,0.0,0.5187987685203552,93.33334350585938,27482.0,1.0
2882.757008,325286.5625,325443.84375,326103.28125,325636.40625,325544.78125,325717.25,325877.1875,325997.0,0.55322265625,0.7587890625,0.3583984375,-1.8920897245407104,-0.1220703050494194,0.5493163466453552,93.33334350585938,27484.0,1.0
2882.7789073,325508.90625,325666.1875,326325.90625,325858.40625,325767.125,325939.78125,326100.0,326219.0625,0.548583984375,0.759521484375,0.3583984375,-1.9531248807907104,-0.3051757514476776,0.3967284858226776,93.33334350585938,27489.0,1.0
2882.7951784,325507.125,325664.65625,326324.5,325856.8125,325765.5,325938.15625,326098.375,326217.46875,0.550537109375,0.75830078125,0.358154296875,-1.8005369901657104,-0.2746581733226776,0.4577636420726776,93.33334350585938,27493.0,1.0
2882.808335,325492.28125,325650.28125,326309.28125,325842.21875,325750.75,325923.59375,326083.90625,326202.4375,0.548583984375,0.759765625,0.3603515625,-1.8920897245407104,0.0,0.4577636420726776,93.33334350585938,27497.0,1.0
2882.8270766,325463.84375,325621.75,326281.03125,325813.53125,325722.40625,325894.96875,326055.28125,326174.28125,0.549560546875,0.75927734375,0.355224609375,-1.7395018339157104,-0.1831054538488388,0.4882812201976776,93.33334350585938,27501.0,1.0
2882.867731,325292.90625,325450.8125,326110.0,325643.21875,325551.46875,325723.84375,325884.34375,326003.34375,0.5478515625,0.758056640625,0.358642578125,-1.8920897245407104,-0.2441406100988388,0.4577636420726776,93.33334350585938,27507.0,1.0
2882.8677371,325114.1875,325272.25,325931.53125,325464.21875,325373.09375,325545.21875,325706.0625,325824.96875,0.54931640625,0.75927734375,0.359130859375,-1.8920897245407104,-0.2136230319738388,0.4272460639476776,93.33334350585938,27508.0,1.0
2882.882085,325612.4375,325770.34375,326429.8125,325962.46875,325870.84375,326043.9375,326204.15625,326322.875,0.5517578125,0.757080078125,0.356689453125,-1.8615721464157104,-0.2746581733226776,0.3662109076976776,93.33334350585938,27514.0,1.0
2882.8983178,325205.5625,325363.28125,326022.28125,325555.59375,325463.78125,325636.40625,325796.375,325915.625,0.548583984375,0.759033203125,0.357177734375,-1.7395018339157104,-0.1220703050494194,0.5187987685203552,93.33334350585938,27520.0,1.0
2882.9357789,325219.78125,325377.9375,326036.78125,325569.90625,325478.34375,325651.25,325811.375,325929.84375,0.548095703125,0.7578125,0.35791015625,-1.8920897245407104,-0.2136230319738388,0.4882812201976776,93.33334350585938,27529.0,1.0
2882.964578,325240.96875,325399.125,326058.15625,325590.8125,325499.34375,325671.90625,325832.125,325951.3125,0.548828125,0.758544921875,0.360107421875,-1.8615721464157104,-0.1220703050494194,0.5187987685203552,93.33334350585938,27537.0,1.0
2882.9901567,325714.5625,325872.625,326531.1875,326064.21875,325973.28125,326145.84375,326306.0625,326425.34375,0.55126953125,0.757568359375,0.357666015625,-1.8005369901657104,-0.1220703050494194,0.4882812201976776,93.33334350585938,27543.0,1.0
2883.0220831,325657.875,325815.21875,326474.15625,326007.28125,325916.0,326088.8125,326248.9375,326368.125,0.550048828125,0.7607421875,0.354736328125,-1.8310545682907104,-0.2441406100988388,0.4577636420726776,93.33334350585938,27551.0,1.0
2883.0463372,325794.21875,325952.28125,326610.9375,326144.0625,326052.59375,326224.96875,326385.375,326504.28125,0.549560546875,0.760498046875,0.353271484375,-1.9531248807907104,-0.1220703050494194,0.5493163466453552,93.33334350585938,27556.0,1.0
2883.0733362,325527.4375,325685.0625,326343.8125,325877.09375,325785.4375,325958.1875,326118.3125,326237.21875,0.550537109375,0.757080078125,0.360107421875,-1.9226073026657104,-0.1831054538488388,0.4882812201976776,93.33334350585938,27563.0,1.0
2883.1133255,325499.875,325656.96875,326316.34375,325849.28125,325758.09375,325931.1875,326091.21875,326209.5,0.55078125,0.7587890625,0.358642578125,-1.8005369901657104,-0.3051757514476776,0.4577636420726776,93.33334350585938,27574.0,1.0
2883.173335,325923.6875,326081.9375,326741.3125,326273.78125,326182.5,326355.0625,326515.375,326634.0,0.55078125,0.759765625,0.3544921875,-1.8920897245407104,-0.1220703050494194,0.4577636420726776,93.33334350585938,27589.0,1.0
2883.1877247,325912.5,326070.75,326730.3125,326262.53125,326171.0625,326344.15625,326504.375,326623.46875,0.552734375,0.758056640625,0.359375,-1.9531248807907104,-0.1220703050494194,0.5187987685203552,93.33334350585938,27593.0,1.0
2883.2164102,325936.1875,326094.1875,326753.46875,326286.125,326194.125,326367.21875,326527.53125,326646.71875,0.554443359375,0.7568359375,0.358642578125,-1.9226073026657104,-0.1831054538488388,0.5187987685203552,93.33334350585938,27598.0,1.0
2883.2233164,325979.5625,326137.28125,326796.90625,326329.75,326237.6875,326410.59375,326570.90625,326689.625,0.55126953125,0.758056640625,0.35791015625,-1.8310545682907104,-0.0610351525247097,0.3967284858226776,93.33334350585938,27602.0,1.0
2883.2433434,326013.0,326170.78125,326830.1875,326362.5625,326271.125,326443.5625,326604.15625,326723.15625,0.548583984375,0.760986328125,0.35888671875,-1.8920897245407104,-0.1831054538488388,0.5493163466453552,93.33334350585938,27606.0,1.0
2883.2589118,325849.8125,326008.0625,326667.375,326200.125,326108.75,326281.21875,326441.25,326560.25,0.55078125,0.7587890625,0.356201171875,-1.8920897245407104,-0.1525878757238388,0.5493163466453552,93.33334350585938,27611.0,1.0
2883.2695735,325718.03125,325875.84375,326534.6875,326067.53125,325976.25,326149.15625,326309.46875,326427.9375,0.548828125,0.76025390625,0.3583984375,-1.8615721464157104,-0.0915527269244194,0.4272460639476776,93.33334350585938,27613.0,1.0
2883.2914151,325995.375,326153.4375,326812.75,326345.78125,326253.84375,326426.84375,326587.25,326706.34375,0.5498046875,0.757080078125,0.35791015625,-1.8615721464157104,-0.1831054538488388,0.5798339247703552,93.33334350585938,27619.0,1.0
2883.3089186,325983.84375,326141.84375,326801.28125,326334.0625,326242.5,326415.5,326575.90625,326694.71875,0.550048828125,0.757568359375,0.35888671875,-1.9226073026657104,-0.1525878757238388,0.5493163466453552,93.33334350585938,27622.0,1.0
2883.3251729,325949.5,326108.03125,326766.6875,326299.53125,326207.53125,326381.09375,326540.5,326659.84375,0.55029296875,0.757568359375,0.35693359375,-1.8005369901657104,-0.1831054538488388,0.4577636420726776,93.33334350585938,27626.0,1.0
2883.3482563,325638.375,325796.1875,326455.375,325987.96875,325896.40625,326069.15625,326228.71875,326348.09375,0.55078125,0.757080078125,0.35595703125,-1.8920897245407104,-0.3051757514476776,0.4882812201976776,93.33334350585938,27629.0,1.0
2883.3739049,325815.40625,325973.46875,326633.03125,326165.0625,326073.875,326246.71875,326406.90625,326526.1875,0.54931640625,0.757568359375,0.35400390625,-1.9226073026657104,-0.1831054538488388,0.4882812201976776,93.33334350585938,27638.0,1.0
2883.3851631,325727.4375,325885.40625,326544.78125,326077.46875,325985.8125,326158.8125,326318.84375,326438.125,0.55078125,0.760009765625,0.35498046875,-1.9226073026657104,-0.1525878757238388,0.4577636420726776,93.33334350585938,27641.0,1.0
2883.4370739,325999.6875,326158.09375,326816.84375,326349.34375,326257.96875,326431.25,326591.28125,326710.0,0.55224609375,0.758056640625,0.35791015625,-1.8310545682907104,-0.0915527269244194,0.4577636420726776,93.33334350585938,27655.0,1.0
2883.4620709,326242.21875,326400.21875,327059.15625,326592.25,326500.71875,326673.53125,326833.65625,326952.9375,0.549560546875,0.758544921875,0.357666015625,-1.8920897245407104,-0.1831054538488388,0.5493163466453552,93.33334350585938,27660.0,1.0
2883.5008194,326171.25,326328.40625,326987.625,326521.09375,326429.4375,326601.75,326762.3125,326881.21875,0.549560546875,0.759765625,0.3603515625,-1.8920897245407104,-0.2746581733226776,0.4272460639476776,93.33334350585938,27665.0,1.0
2883.5038947,325845.96875,326003.6875,326662.625,326195.75,326104.1875,326276.5625,326437.40625,326556.21875,0.5498046875,0.76025390625,0.360595703125,-1.9531248807907104,-0.1525878757238388,0.5798339247703552,93.33334350585938,27666.0,1.0
2883.5039004,325881.125,326038.75,326697.9375,326230.625,326139.5,326312.0625,326472.375,326591.28125,0.545654296875,0.760498046875,0.3583984375,-1.8920897245407104,-0.2746581733226776,0.5798339247703552,93.33334350585938,27667.0,1.0
2883.5264416,326321.90625,326479.875,327138.4375,326671.65625,326580.375,326753.0,326913.5,327031.875,0.55224609375,0.755126953125,0.359375,-1.8005369901657104,-0.2136230319738388,0.4882812201976776,93.33334350585938,27677.0,1.0
2883.528749,326057.0625,326214.875,326873.8125,326407.09375,326315.625,326488.09375,326648.6875,326767.21875,0.552978515625,0.755126953125,0.35693359375,-1.8920897245407104,-0.1525878757238388,0.5798339247703552,93.33334350585938,27678.0,1.0
2883.566397,326212.8125,326370.4375,327029.625,326562.21875,326470.9375,326643.75,326804.0625,326922.96875,0.550048828125,0.759765625,0.355224609375,-1.8005369901657104,-0.1831054538488388,0.4272460639476776,93.33334350585938,27686.0,1.0
2883.5688979,326011.84375,326169.28125,326828.21875,326361.9375,326269.9375,326443.125,326602.90625,326721.8125,0.550048828125,0.759521484375,0.35546875,-1.8005369901657104,-0.1220703050494194,0.4577636420726776,93.33334350585938,27688.0,1.0
2883.5896677,326315.28125,326473.34375,327132.46875,326665.3125,326574.125,326746.9375,326906.875,327026.40625,0.5498046875,0.759765625,0.35791015625,-1.8310545682907104,-0.1831054538488388,0.3662109076976776,93.33334350585938,27693.0,1.0
2883.6077283,326280.59375,326438.21875,327097.5,326630.15625,326538.96875,326711.625,326871.9375,326990.9375,0.550537109375,0.75927734375,0.35498046875,-1.8920897245407104,-0.1525878757238388,0.5798339247703552,93.33334350585938,27697.0,1.0
2883.6344311,325960.15625,326118.03125,326776.96875,326309.8125,326218.625,326391.28125,326551.3125,326670.21875,0.5498046875,0.75634765625,0.359375,-1.8005369901657104,-0.1220703050494194,0.4577636420726776,93.33334350585938,27704.0,1.0
2883.6470637,325982.40625,326140.40625,326799.40625,326332.1875,326240.96875,326413.625,326573.65625,326692.65625,0.547119140625,0.75537109375,0.358642578125,-1.9836424589157104,-0.1831054538488388,0.5493163466453552,93.33334350585938,27708.0,1.0
2883.6933206,326415.875,326573.5,327232.3125,326765.4375,326673.875,326846.96875,327006.84375,327126.1875,0.55029296875,0.758056640625,0.354736328125,-1.8005369901657104,-0.0915527269244194,0.5187987685203552,93.33334350585938,27718.0,1.0
2883.7064038,326511.53125,326669.5,327328.625,326861.28125,326769.8125,326942.8125,327103.3125,327222.21875,0.5498046875,0.759765625,0.354248046875,-1.8005369901657104,-0.3051757514476776,0.4272460639476776,93.33334350585938,27723.0,1.0
2883.7544981,326378.3125,326536.5625,327195.40625,326727.90625,326637.15625,326809.78125,326969.65625,327089.28125,0.550048828125,0.7578125,0.357666015625,-1.9226073026657104,-0.0610351525247097,0.5187987685203552,93.33334350585938,27732.0,1.0
2883.7820689,326195.03125,326352.84375,327011.9375,326545.0625,326453.78125,326626.40625,326786.8125,326905.46875,0.548095703125,0.75830078125,0.35888671875,-1.8615721464157104,-0.1831054538488388,0.6408690810203552,93.33334350585938,27741.0,1.0
2883.8139097,326479.15625,326637.0625,327296.0625,326829.1875,326737.625,326910.5625,327070.9375,327189.3125,0.551025390625,0.758056640625,0.36083984375,-1.8005369901657104,-0.2136230319738388,0.5187987685203552,93.33334350585938,27747.0,1.0
2883.8481786,326497.59375,326655.46875,327314.125,326847.15625,326755.78125,326928.96875,327089.0,327207.5625,0.552001953125,0.75732421875,0.35693359375,-1.7700194120407104,-0.1831054538488388,0.4882812201976776,93.33334350585938,27757.0,1.0
2883.8864077,326312.5,326470.40625,327129.15625,326662.1875,326571.15625,326743.53125,326904.125,327022.5,0.55322265625,0.758544921875,0.357177734375,-1.7395018339157104,-0.1831054538488388,0.4272460639476776,93.33334350585938,27766.0,1.0
2883.9396165,326482.46875,326640.625,327299.375,326832.5,326741.125,326913.59375,327074.15625,327192.28125,0.550048828125,0.756591796875,0.3583984375,-1.8310545682907104,-0.1831054538488388,0.4882812201976776,93.33334350585938,27780.0,1.0
2883.9608285,326690.59375,326848.59375,327507.875,327040.5625,326949.09375,327122.34375,327282.46875,327400.59375,0.548828125,0.759033203125,0.357177734375,-1.8615721464157104,-0.2441406100988388,0.4882812201976776,93.33334350585938,27786.0,1.0
2883.9695819,326405.5,326562.9375,327222.5,326755.15625,326663.6875,326836.4375,326996.8125,327115.125,0.549560546875,0.7568359375,0.356689453125,-1.7395018339157104,-0.1525878757238388,0.4882812201976776,93.33334350585938,27788.0,1.0
2883.9970716,326500.1875,326658.15625,327317.1875,326850.75,326758.75,326931.65625,327091.875,327210.40625,0.549072265625,0.759033203125,0.356689453125,-1.9226073026657104,-0.1525878757238388,0.4577636420726776,93.33334350585938,27795.0,1.0
2884.0008124,326373.40625,326531.5625,327190.75,326723.6875,326632.125,326804.875,326965.28125,327083.71875,0.551513671875,0.75927734375,0.358154296875,-1.8005369901657104,-0.1525878757238388,0.4272460639476776,93.33334350585938,27796.0,1.0
2884.0145767,326577.875,326736.125,327394.96875,326928.25,326836.6875,327010.0625,327169.75,327288.5625,0.552001953125,0.76025390625,0.357666015625,-1.8005369901657104,-0.2136230319738388,0.4882812201976776,93.33334350585938,27799.0,1.0
2884.0320812,326397.09375,326555.34375,327214.625,326747.03125,326656.09375,326829.09375,326989.0625,327107.34375,0.552001953125,0.759521484375,0.3564453125,-1.9226073026657104,-0.0915527269244194,0.4272460639476776,93.33334350585938,27804.0,1.0
2884.063325,326808.53125,326966.34375,327625.90625,327158.84375,327067.46875,327239.9375,327400.9375,327518.6875,0.548828125,0.759033203125,0.3583984375,-1.9226073026657104,-0.0915527269244194,0.3662109076976776,93.33334350585938,27811.0,1.0
2884.0708161,326842.0625,327000.21875,327659.4375,327191.90625,327100.625,327273.71875,327434.21875,327552.125,0.55029296875,0.7578125,0.357666015625,-1.8920897245407104,-0.2746581733226776,0.4882812201976776,93.33334350585938,27814.0,1.0
2884.095152,326920.75,327078.53125,327737.9375,327270.9375,327179.3125,327352.59375,327513.15625,327630.90625,0.549072265625,0.760009765625,0.35546875,-1.8920897245407104,-0.3356933295726776,0.5187987685203552,93.33334350585938,27819.0,1.0
2884.1033328,326475.9375,326633.9375,327293.03125,326825.96875,326734.5,326907.25,327067.8125,327186.28125,0.54833984375,0.760009765625,0.358642578125,-1.8310545682907104,-0.1525878757238388,0.5798339247703552,93.33334350585938,27821.0,1.0
2884.1427263,326722.875,326881.21875,327540.6875,327073.09375,326982.25,327154.90625,327315.46875,327433.75,0.55078125,0.75732421875,0.361328125,-1.8310545682907104,-0.1831054538488388,0.5798339247703552,93.33334350585938,27826.0,1.0
2884.1457769,326975.5625,327133.8125,327793.0,327326.125,327234.375,327407.46875,327568.0625,327686.5,0.54931640625,0.759033203125,0.3603515625,-1.8310545682907104,-0.1220703050494194,0.5493163466453552,93.33334350585938,27827.0,1.0
2884.1783113,326666.28125,326824.4375,327483.65625,327015.96875,326924.84375,327097.84375,327258.53125,327376.4375,0.54931640625,0.7587890625,0.35693359375,-1.8005369901657104,-0.1220703050494194,0.6103515028953552,93.33334350585938,27841.0,1.0
2884.2127174,327063.53125,327221.40625,327880.34375,327412.84375,327321.90625,327495.0,327655.40625,327773.59375,0.54931640625,0.7578125,0.359375,-1.8615721464157104,-0.1831054538488388,0.4882812201976776,93.33334350585938,27848.0,1.0
2884.2413971,326773.21875,326930.84375,327589.78125,327122.625,327031.59375,327204.25,327364.375,327482.65625,0.552001953125,0.7587890625,0.359619140625,-1.8920897245407104,-0.1525878757238388,0.4882812201976776,93.33334350585938,27855.0,1.0
2884.2670799,327040.375,327198.1875,327857.46875,327389.9375,327298.3125,327471.9375,327632.25,327750.25,0.551513671875,0.758056640625,0.35791015625,-1.7395018339157104,-0.1525878757238388,0.5187987685203552,93.33334350585938,27861.0,1.0
2884.2788964,326780.8125,326938.71875,327598.0,327130.59375,327039.375,327212.84375,327372.875,327490.90625,0.55029296875,0.75927734375,0.35791015625,-1.8310545682907104,-0.2136230319738388,0.4882812201976776,93.33334350585938,27866.0,1.0
2884.3051452,326685.6875,326844.375,327503.21875,327036.25,326944.71875,327118.15625,327278.5625,327396.125,0.548828125,0.759765625,0.356689453125,-1.7700194120407104,-0.1831054538488388,0.5798339247703552,93.33334350585938,27871.0,1.0
2884.3195649,326914.125,327072.09375,327731.65625,327264.25,327172.4375,327346.15625,327506.53125,327624.5625,0.55029296875,0.75830078125,0.355712890625,-1.8310545682907104,-0.1831054538488388,0.5798339247703552,93.33334350585938,27876.0,1.0
2884.3595649,326833.125,326990.84375,327650.21875,327182.53125,327091.34375,327264.34375,327424.71875,327543.1875,0.55029296875,0.757080078125,0.357666015625,-1.8615721464157104,-0.2136230319738388,0.5187987685203552,93.33334350585938,27884.0,1.0
2884.3627317,327159.0,327317.25,327976.46875,327508.59375,327417.5625,327590.65625,327750.71875,327869.1875,0.55078125,0.75927734375,0.35693359375,-1.9226073026657104,-0.1525878757238388,0.5187987685203552,93.33334350585938,27886.0,1.0
2884.4170594,326807.65625,326965.625,327625.09375,327157.03125,327066.125,327239.125,327399.25,327517.71875,0.548583984375,0.758056640625,0.358154296875,-1.7700194120407104,-0.1220703050494194,0.5187987685203552,93.33334350585938,27900.0,1.0
2884.4458021,327212.9375,327371.4375,328030.1875,327562.6875,327471.84375,327644.65625,327804.96875,327923.1875,0.550048828125,0.75830078125,0.35693359375,-1.8920897245407104,-0.1525878757238388,0.4577636420726776,93.33334350585938,27907.0,1.0
2884.4527169,326933.25,327091.96875,327750.625,327283.28125,327191.65625,327365.09375,327525.40625,327643.40625,0.55078125,0.75830078125,0.35888671875,-1.8005369901657104,-0.1525878757238388,0.5493163466453552,93.33334350585938,27909.0,1.0
2884.4613939,327269.25,327427.5,328086.53125,327619.0,327527.625,327700.625,327861.03125,327979.5,0.55078125,0.757568359375,0.358642578125,-1.8920897245407104,-0.1525878757238388,0.4882812201976776,93.33334350585938,27910.0,1.0
2884.5151441,327392.09375,327550.53125,328209.375,327741.9375,327650.75,327823.5625,327984.3125,328102.4375,0.548828125,0.759521484375,0.35986328125,-1.8920897245407104,-0.1831054538488388,0.5187987685203552,93.33334350585938,27923.0,1.0
2884.560825,327399.875,327558.40625,328217.78125,327749.71875,327658.34375,327831.34375,327992.09375,328110.125,0.551025390625,0.759521484375,0.358642578125,-1.8310545682907104,-0.1525878757238388,0.4882812201976776,93.33334350585938,27927.0,1.0
2884.5639125,327032.9375,327191.5625,327849.6875,327382.71875,327291.25,327464.6875,327625.09375,327742.9375,0.55029296875,0.760498046875,0.35693359375,-1.9226073026657104,-0.2136230319738388,0.4272460639476776,93.33334350585938,27934.0,1.0
2884.583888,327443.78125,327601.5625,328260.59375,327793.625,327702.34375,327875.4375,328035.5625,328154.125,0.546142578125,0.754638671875,0.361328125,-1.9531248807907104,-0.1525878757238388,0.4577636420726776,93.33334350585938,27940.0,1.0
2884.5895676,327295.8125,327453.875,328112.8125,327646.28125,327554.5625,327727.375,327888.3125,328006.21875,0.54541015625,0.755615234375,0.361083984375,-1.9836424589157104,-0.0915527269244194,0.5798339247703552,93.33334350585938,27943.0,1.0
2884.6108027,327498.65625,327656.75,328315.84375,327848.4375,327756.6875,327930.40625,328090.53125,328208.90625,0.548583984375,0.76123046875,0.356201171875,-1.9836424589157104,-0.1831054538488388,0.3662109076976776,93.33334350585938,27948.0,1.0
2884.6338966,327376.71875,327534.78125,328193.53125,327726.125,327635.09375,327808.46875,327968.59375,328086.78125,0.54931640625,0.757080078125,0.361083984375,-1.9531248807907104,-0.2136230319738388,0.3356933295726776,93.33334350585938,27953.0,1.0
2884.6701374,327432.15625,327589.875,328249.34375,327781.71875,327689.90625,327863.53125,328023.65625,328142.03125,0.5556640625,0.75927734375,0.35400390625,-1.8005369901657104,-0.1831054538488388,0.4882812201976776,93.33334350585938,27964.0,1.0
2884.6920457,327338.53125,327496.34375,328156.09375,327688.75,327596.65625,327770.375,327930.5,328048.875,0.55322265625,0.759033203125,0.35693359375,-1.8615721464157104,-0.1220703050494194,0.4272460639476776,93.33334350585938,27970.0,1.0
2884.7257982,327605.78125,327764.03125,328423.21875,327955.625,327864.0625,328037.71875,328197.84375,328316.03125,0.546142578125,0.758544921875,0.3583984375,-1.8615721464157104,-0.1831054538488388,0.5493163466453552,93.33334350585938,27977.0,1.0
2884.7824992,327625.1875,327783.53125,328443.15625,327975.3125,327883.9375,328057.28125,328217.5,328335.4375,0.548583984375,0.755126953125,0.3564453125,-1.9531248807907104,-0.1525878757238388,0.4577636420726776,93.33334350585938,27986.0,1.0
2884.7825053,327307.6875,327466.03125,328125.15625,327657.53125,327566.25,327739.71875,327899.9375,328017.78125,0.548583984375,0.756103515625,0.35888671875,-1.8005369901657104,-0.2746581733226776,0.4577636420726776,93.33334350585938,27987.0,1.0
2884.8077028,327445.21875,327603.09375,328262.46875,327795.3125,327703.21875,327876.875,328037.0,328155.1875,0.54833984375,0.75927734375,0.357421875,-1.7395018339157104,-0.1220703050494194,0.4272460639476776,93.33334350585938,27997.0,1.0
2884.8420783,327685.4375,327843.78125,328503.15625,328035.03125,327943.65625,328117.46875,328277.59375,328395.6875,0.550537109375,0.759765625,0.361083984375,-1.8920897245407104,-0.2136230319738388,0.7019042372703552,93.33334350585938,28007.0,1.0
2884.8776691,327631.53125,327789.875,328449.25,327981.375,327889.8125,328063.625,328223.59375,328341.78125,0.552734375,0.76171875,0.354248046875,-1.8310545682907104,-0.2746581733226776,0.4577636420726776,93.33334350585938,28014.0,1.0
2884.9001424,327337.5625,327495.71875,328155.0,327687.59375,327595.9375,327769.40625,327929.0625,328047.90625,0.54931640625,0.7568359375,0.358642578125,-1.8310545682907104,-0.2746581733226776,0.4577636420726776,93.33334350585938,28021.0,1.0
2884.9313869,327415.78125,327574.3125,328232.96875,327766.09375,327674.25,327847.8125,328007.75,328126.21875,0.5498046875,0.75927734375,0.358642578125,-1.8615721464157104,-0.1831054538488388,0.5187987685203552,93.33334350585938,28029.0,1.0
2884.9583189,327766.71875,327925.0625,328583.90625,328116.46875,328025.1875,328198.71875,328358.3125,328477.3125,0.54931640625,0.760498046875,0.358154296875,-1.8920897245407104,-0.0915527269244194,0.4882812201976776,93.33334350585938,28035.0,1.0
2884.9627065,327858.0,328016.59375,328675.34375,328208.125,328116.5625,328290.1875,328449.875,328568.5,0.54931640625,0.75927734375,0.3564453125,-1.8920897245407104,-0.1831054538488388,0.4577636420726776,93.33334350585938,28036.0,1.0
2884.9908003,327683.21875,327841.0,328500.21875,328032.59375,327941.0625,328115.03125,328274.53125,328393.0,0.5498046875,0.7568359375,0.3623046875,-1.7700194120407104,-0.2441406100988388,0.5493163466453552,93.33334350585938,28043.0,1.0
2885.0101281,327926.46875,328084.65625,328744.09375,328276.40625,328184.96875,328358.6875,328518.4375,328637.09375,0.552978515625,0.759521484375,0.359130859375,-1.8310545682907104,-0.2136230319738388,0.5493163466453552,93.33334350585938,28048.0,1.0
2885.0258112,327596.9375,327754.375,328414.09375,327946.40625,327855.3125,328028.5,328188.53125,328306.8125,0.5517578125,0.7587890625,0.357421875,-1.8005369901657104,-0.1831054538488388,0.5187987685203552,93.33334350585938,28051.0,1.0
2885.0314075,327560.8125,327718.96875,328378.4375,327910.75,327819.1875,327993.0,328152.59375,328271.0625,0.55126953125,0.759521484375,0.355712890625,-1.8005369901657104,-0.1831054538488388,0.4882812201976776,93.33334350585938,28055.0,1.0
2885.0651375,327972.4375,328130.875,328789.96875,328321.84375,328230.71875,328404.4375,328564.65625,328682.78125,0.549560546875,0.759521484375,0.361572265625,-1.8005369901657104,-0.1525878757238388,0.4882812201976776,93.33334350585938,28061.0,1.0
2885.0744736,327667.375,327825.53125,328484.90625,328017.0625,327925.84375,328099.40625,328259.78125,328377.4375,0.5498046875,0.758544921875,0.359375,-1.9226073026657104,-0.1831054538488388,0.5493163466453552,93.33334350585938,28062.0,1.0
2885.0970531,327777.8125,327935.78125,328594.96875,328127.28125,328035.8125,328209.0,328369.9375,328488.0625,0.55029296875,0.7568359375,0.3583984375,-1.7700194120407104,-0.2441406100988388,0.5798339247703552,93.33334350585938,28068.0,1.0
2885.1101141,328030.5625,328188.71875,328848.0,328380.3125,328288.40625,328462.375,328622.15625,328740.8125,0.549072265625,0.7568359375,0.356689453125,-1.7395018339157104,-0.2441406100988388,0.4272460639476776,93.33334350585938,28073.0,1.0
2885.120803,327691.96875,327850.125,328509.25,328041.71875,327950.1875,328124.0625,328283.84375,328402.125,0.549072265625,0.757568359375,0.3603515625,-1.9226073026657104,-0.2441406100988388,0.4577636420726776,93.33334350585938,28076.0,1.0
2885.1476608,328035.46875,328193.90625,328853.09375,328385.21875,328294.03125,328467.3125,328627.53125,328745.71875,0.54931640625,0.760009765625,0.356201171875,-1.7395018339157104,-0.1831054538488388,0.4577636420726776,93.33334350585938,28082.0,1.0
2885.1844214,327641.09375,327799.15625,328458.53125,327990.9375,327899.46875,328073.03125,328233.15625,328351.15625,0.551513671875,0.7578125,0.357177734375,-1.8920897245407104,-0.2136230319738388,0.5187987685203552,93.33334350585938,28092.0,1.0
2885.2113948,328132.65625,328290.625,328950.0,328482.5,328390.78125,328564.5,328724.96875,328842.71875,0.55322265625,0.758056640625,0.357421875,-1.7700194120407104,-0.2441406100988388,0.4577636420726776,93.33334350585938,28098.0,1.0
2885.2470593,328148.3125,328306.625,328965.9375,328498.0625,328406.59375,328580.125,328740.625,328858.625,0.547607421875,0.754638671875,0.357666015625,-1.7395018339157104,-0.1831054538488388,0.5798339247703552,93.33334350585938,28107.0,1.0
2885.280138,328012.65625,328170.5625,328830.375,328361.90625,328270.875,328443.96875,328604.0,328722.28125,0.549072265625,0.7607421875,0.35888671875,-1.7700194120407104,-0.1831054538488388,0.4577636420726776,93.33334350585938,28114.0,1.0
2885.3070487,328234.59375,328392.90625,329052.46875,328584.4375,328493.15625,328666.6875,328826.71875,328945.46875,0.55126953125,0.75537109375,0.3564453125,-1.9226073026657104,-0.1525878757238388,0.6408690810203552,93.33334350585938,28123.0,1.0
2885.3363887,328193.0,328351.34375,329010.71875,328542.84375,328451.65625,328624.84375,328785.15625,328903.4375,0.55029296875,0.759521484375,0.359130859375,-1.8920897245407104,-0.1831054538488388,0.4882812201976776,93.33334350585938,28131.0,1.0
2885.3795513,328107.71875,328265.875,328925.0625,328457.65625,328366.0,328540.0,328700.3125,328817.6875,0.55322265625,0.760986328125,0.3564453125,-1.9531248807907104,0.0,0.5493163466453552,93.33334350585938,28141.0,1.0
2885.4320513,327993.90625,328151.78125,328811.34375,328343.21875,328251.84375,328425.46875,328585.5,328703.6875,0.55322265625,0.758056640625,0.356201171875,-2.014159917831421,-0.0610351525247097,0.4272460639476776,93.33334350585938,28151.0,1.0
2885.4576713,328436.28125,328595.0625,329254.53125,328786.65625,328694.9375,328868.90625,329028.59375,329146.8125,0.541748046875,0.758056640625,0.36279296875,-2.075195074081421,-0.1525878757238388,0.3967284858226776,93.33334350585938,28161.0,1.0
2885.4682929,327967.53125,328125.9375,328785.25,328317.46875,328226.09375,328399.09375,328559.5625,328677.40625,0.538330078125,0.755126953125,0.364501953125,-1.9836424589157104,-0.2441406100988388,0.5187987685203552,93.33334350585938,28163.0,1.0
2885.4851391,328178.4375,328336.78125,328996.25,328528.71875,328437.34375,328610.8125,328771.28125,328889.03125,0.54541015625,0.7509765625,0.364013671875,-1.8005369901657104,-0.3051757514476776,0.5187987685203552,93.33334350585938,28168.0,1.0
2885.5095654,328136.9375,328295.09375,328954.84375,328486.96875,328395.6875,328569.125,328728.8125,328847.1875,0.552490234375,0.75341796875,0.364501953125,-1.7700194120407104,-0.2746581733226776,0.6408690810203552,93.33334350585938,28172.0,1.0
2885.5276666,328439.21875,328598.03125,329256.9375,328789.34375,328697.625,328871.15625,329031.46875,329149.84375,0.55908203125,0.759033203125,0.355712890625,-1.6784666776657104,-0.2441406100988388,0.5187987685203552,93.33334350585938,28177.0,1.0
2885.529546,328128.90625,328287.0625,328946.78125,328479.09375,328387.46875,328560.90625,328721.21875,328839.15625,0.560546875,0.7607421875,0.354736328125,-1.7395018339157104,-0.3051757514476776,0.4882812201976776,93.33334350585938,28179.0,1.0
2885.5688827,328546.875,328705.75,329364.78125,328896.8125,328805.71875,328979.53125,329139.375,329257.5625,0.55517578125,0.765869140625,0.346435546875,-1.9226073026657104,-0.1220703050494194,0.4272460639476776,93.33334350585938,28186.0,1.0
2885.5688891,328276.40625,328434.9375,329093.96875,328626.4375,328535.0,328708.15625,328868.65625,328986.75,0.55224609375,0.767333984375,0.34814453125,-1.9531248807907104,-0.0915527269244194,0.3051757514476776,93.33334350585938,28187.0,1.0
2885.5851247,328348.5625,328506.65625,329166.03125,328698.40625,328606.96875,328780.3125,328940.625,329058.90625,0.54638671875,0.762939453125,0.35595703125,-2.014159917831421,-0.0915527269244194,0.4272460639476776,93.33334350585938,28191.0,1.0
2885.6020364,328222.875,328381.03125,329040.21875,328572.34375,328480.96875,328654.78125,328815.0,328932.84375,0.545166015625,0.753662109375,0.3671875,-2.075195074081421,-0.0915527269244194,0.5798339247703552,93.33334350585938,28197.0,1.0
2885.6183033,328182.71875,328340.71875,328999.90625,328532.125,328440.46875,328614.5625,328774.59375,328892.78125,0.543212890625,0.7490234375,0.37060546875,-1.8615721464157104,-0.1220703050494194,0.5493163466453552,93.33334350585938,28201.0,1.0
2885.6413917,328701.09375,328859.625,329518.65625,329051.03125,328959.5,329133.03125,329293.34375,329411.8125,0.547119140625,0.756103515625,0.361328125,-1.5869139432907104,-0.3356933295726776,0.4577636420726776,93.33334350585938,28207.0,1.0
2885.6801354,328757.96875,328916.3125,329575.6875,329107.625,329016.25,329189.90625,329350.8125,329468.40625,0.554443359375,0.7666015625,0.34765625,-1.7700194120407104,-0.2746581733226776,0.4577636420726776,93.33334350585938,28215.0,1.0
2885.7188742,328703.6875,328862.125,329521.5,329053.90625,328962.8125,329136.34375,329295.9375,329414.5625,0.55712890625,0.759033203125,0.35595703125,-2.166747808456421,-0.0915527269244194,0.5798339247703552,93.33334350585938,28224.0,1.0
2885.7333022,328259.34375,328417.40625,329076.53125,328609.0,328518.09375,328691.1875,328851.21875,328969.0625,0.553955078125,0.7529296875,0.360595703125,-2.014159917831421,-0.03051757626235485,0.3967284858226776,93.33334350585938,28230.0,1.0
2885.7819933,328666.25,328824.5625,329483.875,329016.53125,328924.71875,329099.0625,329258.1875,329376.9375,0.54150390625,0.759765625,0.358154296875,-1.8005369901657104,-0.2136230319738388,0.5187987685203552,93.33334350585938,28241.0,1.0
2885.8251327,328828.78125,328987.375,329646.59375,329178.96875,329087.78125,329261.25,329421.1875,329539.46875,0.5546875,0.75732421875,0.3544921875,-1.8615721464157104,-0.2746581733226776,0.6713866591453552,93.33334350585938,28252.0,1.0
2885.8382942,328788.90625,328947.0625,329606.34375,329138.75,329047.09375,329220.75,329380.78125,329498.78125,0.55859375,0.756103515625,0.356201171875,-1.8920897245407104,-0.2441406100988388,0.5493163466453552,93.33334350585938,28256.0,1.0
2885.8763977,328859.25,329017.25,329676.4375,329208.84375,329117.46875,329290.90625,329450.96875,329568.875,0.548095703125,0.7607421875,0.355712890625,-1.7700194120407104,-0.3051757514476776,0.5493163466453552,93.33334350585938,28266.0,1.0
2885.9401379,329144.21875,329302.71875,329961.90625,329494.0625,329402.84375,329576.21875,329736.09375,329854.1875,0.551025390625,0.754638671875,0.363037109375,-1.9226073026657104,-0.2441406100988388,0.5493163466453552,93.33334350585938,28282.0,1.0
2885.9551294,328876.6875,329034.9375,329694.5,329226.71875,329135.625,329308.8125,329469.1875,329586.9375,0.55126953125,0.755615234375,0.359619140625,-1.8920897245407104,-0.1525878757238388,0.5493163466453552,93.33334350585938,28285.0,1.0
2885.98012,328605.0,328763.59375,329422.96875,328955.1875,328863.90625,329037.1875,329197.21875,329314.96875,0.551513671875,0.758056640625,0.357177734375,-1.7700194120407104,-0.1831054538488388,0.4882812201976776,93.33334350585938,28288.0,1.0
2885.9982936,329126.21875,329284.40625,329943.59375,329475.8125,329384.96875,329558.15625,329718.375,329836.125,0.546875,0.76171875,0.359619140625,-1.7700194120407104,-0.1525878757238388,0.3967284858226776,93.33334350585938,28295.0,1.0
2886.0027109,328751.09375,328909.59375,329568.875,329101.125,329010.0,329183.46875,329343.3125,329461.34375,0.546875,0.762939453125,0.35595703125,-1.8920897245407104,-0.1525878757238388,0.4272460639476776,93.33334350585938,28297.0,1.0
2886.0201201,329121.75,329280.09375,329939.65625,329471.53125,329380.34375,329554.03125,329714.0,329832.09375,0.548095703125,0.7607421875,0.355712890625,-1.8615721464157104,-0.2136230319738388,0.5187987685203552,93.33334350585938,28302.0,1.0
2886.0389156,328709.34375,328867.3125,329527.125,329058.71875,328967.4375,329141.34375,329300.84375,329419.21875,0.549072265625,0.759765625,0.3583984375,-1.8615721464157104,-0.1220703050494194,0.5187987685203552,93.33334350585938,28305.0,1.0
2886.0633119,329301.65625,329459.90625,330119.625,329651.21875,329560.03125,329733.84375,329893.875,330012.0,0.548583984375,0.75732421875,0.35791015625,-1.8310545682907104,-0.2136230319738388,0.5798339247703552,93.33334350585938,28307.0,1.0
2886.0683053,328714.15625,328872.125,329531.875,329063.75,328972.8125,329146.34375,329306.5625,329424.3125,0.5517578125,0.755126953125,0.358642578125,-1.9836424589157104,-0.2441406100988388,0.5187987685203552,93.33334350585938,28309.0,1.0
2886.1001263,329300.5,329459.1875,330118.21875,329650.15625,329558.96875,329732.40625,329892.90625,330010.75,0.5498046875,0.756591796875,0.35986328125,-1.8310545682907104,-0.0915527269244194,0.4882812201976776,93.33334350585938,28319.0,1.0
2886.102644,328846.84375,329005.28125,329664.5625,329196.59375,329105.5,329279.375,329439.34375,329557.34375,0.548583984375,0.75830078125,0.358154296875,-1.8615721464157104,-0.0610351525247097,0.5187987685203552,93.33334350585938,28321.0,1.0
2886.130122,329221.625,329380.0625,330039.53125,329571.65625,329480.90625,329654.53125,329814.125,329932.25,0.5478515625,0.761474609375,0.35791015625,-1.9226073026657104,-0.1525878757238388,0.5493163466453552,93.33334350585938,28327.0,1.0
2886.1457827,328832.4375,328990.4375,329649.8125,329182.28125,329091.09375,329264.90625,329424.40625,329542.4375,0.549560546875,0.758056640625,0.3603515625,-1.8615721464157104,-0.2441406100988388,0.4577636420726776,93.33334350585938,28334.0,1.0
2886.1969675,329399.8125,329558.0625,330217.28125,329749.84375,329658.46875,329832.09375,329992.3125,330110.34375,0.553466796875,0.75830078125,0.358154296875,-1.8310545682907104,-0.2441406100988388,0.4272460639476776,93.33334350585938,28344.0,1.0
2886.2188648,329022.6875,329181.5625,329840.25,329372.71875,329281.09375,329455.25,329615.1875,329733.40625,0.549072265625,0.76171875,0.35498046875,-1.8920897245407104,-0.2746581733226776,0.5493163466453552,93.33334350585938,28350.0,1.0
2886.2368778,329221.1875,329379.6875,330038.71875,329571.21875,329480.03125,329653.75,329814.03125,329931.625,0.553955078125,0.763916015625,0.354736328125,-1.9226073026657104,-0.2136230319738388,0.5493163466453552,93.33334350585938,28356.0,1.0
2886.2782816,329359.5,329517.84375,330177.84375,329709.625,329618.15625,329792.0625,329952.09375,330069.84375,0.552490234375,0.7578125,0.35693359375,-1.8310545682907104,-0.0915527269244194,0.4882812201976776,93.33334350585938,28366.0,1.0
2886.3176472,329507.09375,329665.4375,330324.90625,329857.3125,329765.59375,329939.84375,330100.15625,330217.625,0.545166015625,0.75732421875,0.359130859375,-1.8310545682907104,-0.2136230319738388,0.5798339247703552,93.33334350585938,28374.0,1.0
2886.3313807,328971.46875,329129.53125,329789.53125,329321.5,329229.78125,329404.125,329564.0625,329681.8125,0.545166015625,0.7607421875,0.358154296875,-1.8310545682907104,-0.2136230319738388,0.5798339247703552,93.33334350585938,28380.0,1.0
2886.3682804,329009.375,329167.71875,329827.28125,329359.125,329268.21875,329441.84375,329601.625,329719.71875,0.55126953125,0.76025390625,0.357177734375,-1.8005369901657104,-0.1831054538488388,0.4577636420726776,93.33334350585938,28388.0,1.0
2886.442645,329045.59375,329203.65625,329862.9375,329395.34375,329303.96875,329477.96875,329637.90625,329755.5625,0.548583984375,0.759765625,0.357177734375,-1.9531248807907104,-0.0610351525247097,0.4577636420726776,93.33334350585938,28405.0,1.0
2886.4607793,329655.0625,329813.78125,330473.34375,330005.375,329913.90625,330087.90625,330247.40625,330365.875,0.545654296875,0.75537109375,0.36328125,-1.9531248807907104,-0.0610351525247097,0.5493163466453552,93.33334350585938,28411.0,1.0
2886.4727754,329639.96875,329798.75,330458.5625,329990.53125,329899.15625,330072.875,330233.0,330350.9375,0.5478515625,0.756103515625,0.363525390625,-1.8615721464157104,-0.1831054538488388,0.4577636420726776,93.33334350585938,28415.0,1.0
2886.4907972,329605.28125,329764.15625,330423.4375,329955.46875,329863.84375,330037.8125,330198.125,330315.96875,0.547119140625,0.75341796875,0.36328125,-1.7700194120407104,-0.2746581733226776,0.5493163466453552,93.33334350585938,28419.0,1.0
2886.5182204,329692.90625,329851.59375,330511.0625,330043.28125,329951.90625,330125.53125,330285.65625,330403.21875,0.54931640625,0.75537109375,0.359619140625,-1.7089842557907104,-0.3356933295726776,0.5187987685203552,93.33334350585938,28424.0,1.0
2886.521367,329507.09375,329665.90625,330325.71875,329858.03125,329766.5625,329940.1875,330100.21875,330217.90625,0.552001953125,0.762939453125,0.35595703125,-1.6479490995407104,-0.2441406100988388,0.5187987685203552,93.33334350585938,28427.0,1.0
2886.5388885,329448.46875,329606.96875,330266.53125,329798.5625,329707.46875,329881.0,330041.03125,330158.78125,0.5546875,0.760009765625,0.35693359375,-1.8310545682907104,-0.2746581733226776,0.4882812201976776,93.33334350585938,28431.0,1.0
2886.5638663,329745.5625,329904.96875,330563.8125,330095.84375,330004.75,330178.5625,330338.9375,330456.53125,0.553466796875,0.761962890625,0.355224609375,-1.8920897245407104,-0.03051757626235485,0.4577636420726776,93.33334350585938,28436.0,1.0
2886.5676462,329323.03125,329481.8125,330141.1875,329673.3125,329582.21875,329755.46875,329915.6875,330033.34375,0.55224609375,0.760498046875,0.3544921875,-1.8920897245407104,-0.1220703050494194,0.4882812201976776,93.33334350585938,28439.0,1.0
2886.5938707,329684.03125,329843.0,330502.125,330034.0625,329943.3125,330117.03125,330276.90625,330394.84375,0.5478515625,0.75830078125,0.35693359375,-1.9226073026657104,-0.1831054538488388,0.4882812201976776,93.33334350585938,28444.0,1.0
2886.6082732,329780.5,329939.3125,330598.3125,330130.71875,330039.71875,330213.34375,330373.28125,330490.9375,0.541015625,0.74951171875,0.359375,-1.7089842557907104,-0.1525878757238388,0.4272460639476776,93.33334350585938,28449.0,1.0
2886.6288739,329774.15625,329933.03125,330592.5,330124.65625,330033.1875,330207.0,330367.28125,330484.5,0.542236328125,0.75048828125,0.359130859375,-1.9226073026657104,-0.0915527269244194,0.6713866591453552,93.33334350585938,28453.0,1.0
2886.6395421,329533.84375,329692.8125,330352.0,329883.875,329793.21875,329966.84375,330126.59375,330244.1875,0.54345703125,0.760009765625,0.360595703125,-1.7700194120407104,-0.1525878757238388,0.3051757514476776,93.33334350585938,28456.0,1.0
2886.677069,329392.125,329551.0,330210.03125,329742.4375,329651.3125,329825.03125,329984.625,330102.65625,0.555908203125,0.75830078125,0.354736328125,-1.7700194120407104,-0.2746581733226776,0.4577636420726776,93.33334350585938,28467.0,1.0
2886.7082856,329792.6875,329951.8125,330610.84375,330142.875,330052.03125,330225.21875,330385.625,330503.46875,0.5537109375,0.760498046875,0.3544921875,-1.8920897245407104,-0.1525878757238388,0.5493163466453552,93.33334350585938,28470.0,1.0
2886.7520267,329567.90625,329726.6875,330385.875,329918.46875,329826.65625,330000.625,330160.21875,330277.96875,0.546875,0.75537109375,0.361328125,-1.9226073026657104,-0.0610351525247097,0.5493163466453552,93.33334350585938,28485.0,1.0
2886.7732935,329866.78125,330025.75,330685.125,330217.53125,330125.4375,330299.875,330459.65625,330577.21875,0.548583984375,0.754638671875,0.36328125,-1.8615721464157104,-0.03051757626235485,0.5493163466453552,93.33334350585938,28490.0,1.0
2886.8138738,329637.09375,329796.0625,330455.28125,329987.21875,329895.9375,330069.84375,330229.59375,330347.25,0.5517578125,0.75830078125,0.354248046875,-1.8310545682907104,-0.3662109076976776,0.5493163466453552,93.33334350585938,28500.0,1.0
2886.8513524,329783.375,329942.34375,330601.375,330133.9375,330042.65625,330216.28125,330376.21875,330493.28125,0.551025390625,0.760009765625,0.35498046875,-1.7700194120407104,-0.2136230319738388,0.6103515028953552,93.33334350585938,28508.0,1.0
2886.8751121,329982.3125,330141.4375,330800.90625,330332.875,330240.96875,330415.21875,330574.8125,330693.0,0.551025390625,0.759033203125,0.3564453125,-1.9226073026657104,-0.1220703050494194,0.6713866591453552,93.33334350585938,28515.0,1.0
2886.9469811,330081.28125,330240.15625,330899.25,330431.65625,330339.65625,330513.75,330673.78125,330791.15625,0.550048828125,0.75830078125,0.35595703125,-1.7395018339157104,-0.0915527269244194,0.4882812201976776,93.33334350585938,28532.0,1.0
2886.9657829,330074.125,330232.8125,330892.375,330424.4375,330332.78125,330506.6875,330666.625,330783.84375,0.546875,0.758544921875,0.35546875,-1.8920897245407104,-0.0915527269244194,0.5493163466453552,93.33334350585938,28536.0,1.0
2886.9788747,329717.9375,329876.8125,330536.4375,330068.3125,329976.84375,330150.46875,330310.4375,330426.75,0.548828125,0.759033203125,0.363037109375,-1.9836424589157104,-0.2136230319738388,0.5798339247703552,93.33334350585938,28539.0,1.0
2886.9963637,330120.96875,330279.3125,330938.96875,330471.4375,330379.0,330553.15625,330712.9375,330830.5,0.550048828125,0.75927734375,0.359130859375,-1.8920897245407104,-0.2441406100988388,0.5187987685203552,93.33334350585938,28545.0,1.0
2887.0045238,330033.625,330192.21875,330851.6875,330384.09375,330292.09375,330466.34375,330626.03125,330743.15625,0.5498046875,0.757568359375,0.35791015625,-1.8920897245407104,-0.1525878757238388,0.5493163466453552,93.33334350585938,28548.0,1.0
2887.0301145,330022.28125,330181.25,330840.625,330372.125,330280.9375,330454.65625,330614.78125,330731.53125,0.55029296875,0.757080078125,0.355224609375,-1.7700194120407104,-0.3051757514476776,0.5187987685203552,93.33334350585938,28554.0,1.0
2887.043859,330272.96875,330432.375,331091.84375,330623.53125,330531.96875,330705.78125,330866.09375,330983.65625,0.549072265625,0.757080078125,0.358642578125,-1.7700194120407104,-0.1831054538488388,0.4577636420726776,93.33334350585938,28557.0,1.0
2887.063847,330189.46875,330348.53125,331007.96875,330540.375,330448.75,330622.1875,330782.15625,330899.09375,0.549072265625,0.758056640625,0.357421875,-1.8005369901657104,-0.3051757514476776,0.4577636420726776,93.33334350585938,28562.0,1.0
2887.0719796,329792.75,329952.1875,330611.1875,330143.25,330051.875,330225.65625,330385.25,330501.3125,0.54736328125,0.759521484375,0.35791015625,-1.8310545682907104,-0.2746581733226776,0.5493163466453552,93.33334350585938,28564.0,1.0
2887.0857857,329759.3125,329918.28125,330577.5625,330109.8125,330018.0625,330191.6875,330351.46875,330466.96875,0.54931640625,0.75927734375,0.35693359375,-1.8615721464157104,-0.2441406100988388,0.6103515028953552,93.33334350585938,28568.0,1.0
2887.107026,330096.3125,330255.25,330914.8125,330446.96875,330355.03125,330528.84375,330688.875,330805.03125,0.5556640625,0.75732421875,0.354736328125,-1.8615721464157104,-0.2136230319738388,0.5798339247703552,93.33334350585938,28573.0,1.0
2887.1207884,330036.5625,330195.1875,330854.84375,330387.0625,330295.40625,330469.5625,330628.625,330745.125,0.553466796875,0.758056640625,0.35693359375,-1.8920897245407104,-0.0915527269244194,0.6408690810203552,93.33334350585938,28577.0,1.0
2887.145127,330352.4375,330511.3125,331171.34375,330703.09375,330611.375,330785.625,330945.21875,331062.0625,0.55029296875,0.755615234375,0.361083984375,-1.8615721464157104,-0.1220703050494194,0.4272460639476776,93.33334350585938,28582.0,1.0
2887.1851169,329855.4375,330014.40625,330673.59375,330206.0,330114.375,330288.25,330447.21875,330562.5625,0.54736328125,0.75927734375,0.357177734375,-1.7700194120407104,-0.1831054538488388,0.4272460639476776,93.33334350585938,28593.0,1.0
2887.2120294,330439.09375,330598.15625,331257.53125,330790.0,330698.1875,330872.0,331031.9375,331148.53125,0.55029296875,0.760498046875,0.359375,-1.8615721464157104,-0.3051757514476776,0.6103515028953552,93.33334350585938,28599.0,1.0
2887.2376517,330074.5625,330233.1875,330892.375,330424.78125,330333.40625,330507.125,330666.625,330781.6875,0.5546875,0.757080078125,0.358642578125,-1.9226073026657104,-0.1220703050494194,0.5493163466453552,93.33334350585938,28606.0,1.0
2887.2812263,330467.0625,330626.03125,331285.40625,330817.28125,330726.09375,330899.875,331059.75,331175.1875,0.551025390625,0.762451171875,0.354248046875,-1.8920897245407104,-0.2136230319738388,0.4882812201976776,93.33334350585938,28616.0,1.0
2887.3151061,330549.5,330708.90625,331368.125,330900.53125,330809.15625,330982.78125,331142.375,331257.6875,0.550048828125,0.759033203125,0.357177734375,-1.8920897245407104,-0.1831054538488388,0.4882812201976776,93.33334350585938,28624.0,1.0
2887.3488702,330561.3125,330720.53125,331379.65625,330912.0625,330820.59375,330994.46875,331153.8125,331269.6875,0.548828125,0.75634765625,0.360595703125,-1.8310545682907104,0.0,0.5493163466453552,93.33334350585938,28628.0,1.0
2887.3862633,330211.0,330369.875,331029.34375,330562.03125,330469.9375,330644.28125,330803.0625,330916.78125,0.548095703125,0.76025390625,0.357177734375,-1.8005369901657104,-0.1831054538488388,0.4272460639476776,93.33334350585938,28642.0,1.0
2887.4413667,330256.53125,330415.84375,331074.59375,330607.15625,330515.71875,330689.34375,330848.40625,330962.21875,0.553955078125,0.7548828125,0.3583984375,-1.7700194120407104,-0.2441406100988388,0.6103515028953552,93.33334350585938,28656.0,1.0
2887.4470247,330158.625,330317.75,330976.25,330508.90625,330417.4375,330591.15625,330750.03125,330863.5,0.552490234375,0.7578125,0.357666015625,-1.8920897245407104,-0.1220703050494194,0.4577636420726776,93.33334350585938,28659.0,1.0
2887.4745102,330572.3125,330730.90625,331390.28125,330922.5,330830.5,331005.03125,331163.375,331278.34375,0.547607421875,0.760009765625,0.353515625,-1.8310545682907104,-0.0610351525247097,0.4882812201976776,93.33334350585938,28665.0,1.0
2887.4982742,330732.875,330892.03125,331551.125,331083.34375,330991.96875,331166.0625,331324.9375,331439.8125,0.54833984375,0.759033203125,0.358154296875,-1.8615721464157104,-0.1220703050494194,0.4882812201976776,93.33334350585938,28670.0,1.0
2887.503882,330452.3125,330612.0,331270.5625,330802.78125,330711.25,330885.21875,331044.28125,331158.375,0.5478515625,0.7587890625,0.35693359375,-1.8310545682907104,-0.2136230319738388,0.5187987685203552,93.33334350585938,28673.0,1.0
2887.5226595,330392.15625,330551.375,331210.21875,330742.53125,330650.96875,330825.40625,330983.84375,331097.375,0.55126953125,0.760009765625,0.356689453125,-1.7700194120407104,-0.0915527269244194,0.4577636420726776,93.33334350585938,28677.0,1.0
2887.5451098,330744.15625,330903.8125,331562.84375,331094.96875,331003.25,331177.59375,331335.9375,331451.25,0.55322265625,0.7568359375,0.3564453125,-1.8005369901657104,-0.1525878757238388,0.4272460639476776,93.33334350585938,28682.0,1.0
2887.5532668,330292.0,330451.25,331110.34375,330642.75,330550.84375,330724.84375,330883.09375,330996.375,0.550537109375,0.757568359375,0.35400390625,-1.8615721464157104,-0.0610351525247097,0.4272460639476776,93.33334350585938,28685.0,1.0
2887.5595268,330710.0,330869.40625,331528.78125,331061.09375,330969.28125,331143.15625,331302.03125,331416.125,0.551513671875,0.756591796875,0.358154296875,-1.8005369901657104,-0.0915527269244194,0.4882812201976776,93.33334350585938,28686.0,1.0
2887.5907699,330842.59375,331001.8125,331660.46875,331192.96875,331101.21875,331275.5,331434.46875,331548.4375,0.546630859375,0.759521484375,0.356201171875,-1.8615721464157104,-0.2441406100988388,0.5493163466453552,93.33334350585938,28695.0,1.0
2887.60829,330861.90625,331020.78125,331680.0625,331212.46875,331120.625,331294.625,331453.5,331567.9375,0.549560546875,0.759521484375,0.357421875,-1.8920897245407104,-0.1831054538488388,0.5798339247703552,93.33334350585938,28699.0,1.0
2887.6263515,330857.15625,331016.5625,331675.21875,331207.625,331116.15625,331290.25,331449.03125,331562.9375,0.5498046875,0.758544921875,0.3603515625,-1.8310545682907104,-0.1525878757238388,0.5187987685203552,93.33334350585938,28703.0,1.0
2887.6407605,330833.5625,330993.0625,331651.90625,331183.84375,331092.5625,331266.8125,331425.78125,331539.5,0.551513671875,0.757080078125,0.3564453125,-1.8310545682907104,-0.03051757626235485,0.6103515028953552,93.33334350585938,28707.0,1.0
2887.6788599,330539.9375,330699.09375,331358.46875,330890.40625,330798.78125,330972.9375,331131.46875,331244.28125,0.551025390625,0.760009765625,0.357666015625,-1.7395018339157104,-0.1831054538488388,0.5493163466453552,93.33334350585938,28717.0,1.0
2887.7032673,330630.40625,330789.90625,331448.9375,330981.25,330889.53125,331063.5,331222.1875,331334.3125,0.548583984375,0.759765625,0.358154296875,-1.8920897245407104,-0.1220703050494194,0.4882812201976776,93.33334350585938,28723.0,1.0
2887.7445273,330899.875,331059.21875,331719.03125,331250.625,331159.34375,331333.59375,331491.75,331604.59375,0.55224609375,0.756591796875,0.358642578125,-1.9226073026657104,-0.1525878757238388,0.5798339247703552,93.33334350585938,28733.0,1.0
2887.7832735,330442.40625,330601.4375,331260.75,330793.3125,330701.3125,330875.75,331033.1875,331144.59375,0.548828125,0.758544921875,0.359375,-1.7395018339157104,-0.2441406100988388,0.4272460639476776,93.33334350585938,28743.0,1.0
2887.8194359,330847.9375,331007.71875,331667.1875,331198.96875,331107.40625,331281.5625,331439.375,331551.84375,0.55126953125,0.76025390625,0.354736328125,-1.8615721464157104,-0.2441406100988388,0.4577636420726776,93.33334350585938,28750.0,1.0
2887.8444448,331019.875,331179.46875,331838.5625,331370.53125,331278.71875,331453.3125,331610.84375,331723.6875,0.551025390625,0.75927734375,0.3564453125,-1.8615721464157104,-0.1525878757238388,0.6103515028953552,93.33334350585938,28757.0,1.0
2887.908166,330543.6875,330703.28125,331362.46875,330894.25,330802.53125,330977.59375,331134.59375,331245.625,0.550537109375,0.756591796875,0.357666015625,-1.8920897245407104,-0.0915527269244194,0.5187987685203552,93.33334350585938,28768.0,1.0
2887.9182008,331156.3125,331316.25,331975.28125,331506.6875,331415.21875,331590.03125,331747.8125,331860.46875,0.549072265625,0.75830078125,0.3583984375,-1.8310545682907104,-0.1831054538488388,0.5493163466453552,93.33334350585938,28774.0,1.0
2887.9857748,331188.21875,331348.09375,332006.84375,331539.15625,331447.6875,331622.125,331779.375,331891.5,0.550048828125,0.758056640625,0.360595703125,-1.8615721464157104,-0.1831054538488388,0.5493163466453552,93.33334350585938,28787.0,1.0
2887.9932851,331015.40625,331174.71875,331833.84375,331365.78125,331274.0625,331448.5,331606.21875,331717.4375,0.549072265625,0.75732421875,0.3583984375,-1.8310545682907104,-0.1831054538488388,0.4272460639476776,93.33334350585938,28790.0,1.0
2888.0251028,330840.625,331000.125,331659.3125,331191.28125,331100.0625,331273.96875,331431.59375,331542.1875,0.550048828125,0.76025390625,0.355712890625,-1.8615721464157104,-0.2136230319738388,0.4577636420726776,93.33334350585938,28802.0,1.0
2888.0270072,331241.5,331400.75,332060.125,331591.90625,331500.4375,331674.6875,331832.59375,331944.25,0.550537109375,0.760498046875,0.357177734375,-1.8615721464157104,-0.2441406100988388,0.5493163466453552,93.33334350585938,28803.0,1.0
2888.0488506,330848.125,331007.4375,331666.46875,331198.78125,331107.03125,331281.5625,331438.5625,331549.4375,0.5498046875,0.759765625,0.35595703125,-1.8005369901657104,-0.1831054538488388,0.5493163466453552,93.33334350585938,28809.0,1.0
2888.0632614,331296.78125,331456.53125,332115.65625,331647.6875,331555.78125,331730.46875,331888.03125,331999.3125,0.551513671875,0.757568359375,0.357421875,-1.8615721464157104,-0.1831054538488388,0.4882812201976776,93.33334350585938,28812.0,1.0
2888.0807657,330769.0,330928.59375,331587.78125,331119.5625,331028.0,331202.4375,331359.34375,331469.6875,0.551025390625,0.7578125,0.3583984375,-1.8920897245407104,-0.1525878757238388,0.5798339247703552,93.33334350585938,28818.0,1.0
2888.1301197,330949.59375,331109.0,331768.5625,331300.625,331208.53125,331383.03125,331540.21875,331650.5625,0.548095703125,0.759765625,0.357177734375,-1.8615721464157104,-0.2136230319738388,0.4577636420726776,93.33334350585938,28827.0,1.0
2888.1776316,331213.53125,331372.59375,332032.125,331564.28125,331472.71875,331646.96875,331803.875,331914.84375,0.55224609375,0.75927734375,0.35693359375,-1.9531248807907104,-0.1831054538488388,0.4577636420726776,93.33334350585938,28840.0,1.0
2888.2101165,331462.53125,331621.59375,332281.40625,331813.375,331721.53125,331895.875,332053.0625,332164.0,0.54833984375,0.7578125,0.356201171875,-1.8920897245407104,-0.1525878757238388,0.5187987685203552,93.33334350585938,28849.0,1.0
2888.2388573,331007.71875,331166.9375,331825.96875,331358.28125,331266.1875,331440.96875,331597.625,331707.3125,0.546630859375,0.759521484375,0.361083984375,-1.9226073026657104,-0.2441406100988388,0.4577636420726776,93.33334350585938,28856.0,1.0
2888.2795135,331263.6875,331422.65625,332082.125,331614.15625,331521.96875,331696.9375,331853.5,331963.375,0.552734375,0.758056640625,0.357177734375,-1.8615721464157104,-0.3356933295726776,0.4272460639476776,93.33334350585938,28867.0,1.0
2888.309502,331561.15625,331720.75,332380.28125,331912.15625,331820.4375,331995.03125,332152.125,332262.375,0.54931640625,0.757568359375,0.359619140625,-1.8615721464157104,-0.1525878757238388,0.5187987685203552,93.33334350585938,28874.0,1.0
2888.3576309,331451.1875,331610.59375,332270.59375,331802.0,331710.46875,331885.0625,332041.625,332151.59375,0.54638671875,0.760498046875,0.35693359375,-1.8310545682907104,-0.2136230319738388,0.6713866591453552,93.33334350585938,28886.0,1.0
2888.3731848,331394.65625,331554.09375,332213.28125,331745.3125,331653.5,331828.375,331984.5625,332093.84375,0.55078125,0.75830078125,0.361328125,-1.8310545682907104,-0.2441406100988388,0.4272460639476776,93.33334350585938,28890.0,1.0
2888.3895192,331663.96875,331823.375,332482.75,332014.53125,331922.625,332097.3125,332254.0625,332364.03125,0.55078125,0.7578125,0.35888671875,-1.8005369901657104,-0.2441406100988388,0.4577636420726776,93.33334350585938,28895.0,1.0
2888.4413112,331197.15625,331356.40625,332015.96875,331547.90625,331455.90625,331630.4375,331786.8125,331894.4375,0.548828125,0.760009765625,0.35888671875,-1.8615721464157104,-0.03051757626235485,0.4882812201976776,93.33334350585938,28906.0,1.0
2888.4651116,331731.90625,331891.59375,332550.53125,332082.84375,331991.0,332165.1875,332322.0,332431.15625,0.549560546875,0.759033203125,0.35986328125,-1.7700194120407104,-0.1525878757238388,0.5187987685203552,93.33334350585938,28912.0,1.0
2888.4957541,331760.78125,331920.1875,332579.9375,332111.71875,332020.0625,332194.40625,332351.15625,332460.125,0.55126953125,0.758056640625,0.35595703125,-1.8310545682907104,-0.2136230319738388,0.4882812201976776,93.33334350585938,28920.0,1.0
2888.5169995,331325.03125,331484.78125,332143.90625,331675.6875,331584.21875,331758.8125,331915.03125,332022.46875,0.549072265625,0.759765625,0.3583984375,-1.9531248807907104,-0.1525878757238388,0.5187987685203552,93.33334350585938,28927.0,1.0
2888.5407601,331678.34375,331837.5,332496.78125,332028.5625,331937.1875,332111.71875,332267.90625,332376.34375,0.55029296875,0.760986328125,0.358154296875,-1.8310545682907104,-0.2136230319738388,0.5493163466453552,93.33334350585938,28932.0,1.0
2888.5588614,331627.75,331787.0625,332446.28125,331977.96875,331886.125,332061.46875,332217.03125,332325.5625,0.550048828125,0.75830078125,0.35498046875,-1.9531248807907104,-0.1220703050494194,0.5493163466453552,93.33334350585938,28936.0,1.0
2888.575733,331862.53125,332022.3125,332681.9375,332213.625,332122.1875,332296.78125,332452.875,332561.4375,0.5498046875,0.76025390625,0.35546875,-1.9226073026657104,-0.1220703050494194,0.4272460639476776,93.33334350585938,28941.0,1.0
2888.5907496,331515.28125,331674.34375,332334.25,331865.65625,331774.125,331949.0,332104.5625,332212.5625,0.549072265625,0.75634765625,0.35693359375,-1.8310545682907104,-0.1831054538488388,0.4882812201976776,93.33334350585938,28944.0,1.0
2888.625121,331461.375,331621.03125,332280.34375,331812.65625,331720.90625,331895.34375,332051.09375,332158.84375,0.550537109375,0.75732421875,0.358154296875,-1.9836424589157104,-0.1220703050494194,0.3967284858226776,93.33334350585938,28948.0,1.0
2888.6281871,331783.84375,331943.4375,332602.8125,332134.78125,332042.6875,332217.84375,332373.40625,332481.84375,0.551025390625,0.759033203125,0.357421875,-1.8310545682907104,-0.1220703050494194,0.5493163466453552,93.33334350585938,28950.0,1.0
2888.6495002,331548.28125,331707.59375,332366.96875,331899.0,331806.84375,331981.625,332137.1875,332244.75,0.55126953125,0.75732421875,0.360107421875,-1.8310545682907104,-0.1831054538488388,0.4272460639476776,93.33334350585938,28959.0,1.0
2888.7082668,331551.40625,331710.375,332370.0,331902.0625,331810.59375,331985.03125,332140.0625,332247.15625,0.55224609375,0.758544921875,0.358154296875,-1.8920897245407104,-0.1831054538488388,0.5798339247703552,93.33334350585938,28973.0,1.0
2888.7250979,331963.46875,332122.625,332782.53125,332313.9375,332222.65625,332397.1875,332552.65625,332660.5,0.5498046875,0.75830078125,0.358154296875,-1.8920897245407104,-0.1220703050494194,0.5187987685203552,93.33334350585938,28979.0,1.0
2888.7738251,331748.90625,331908.125,332567.40625,332099.65625,332007.8125,332182.6875,332338.4375,332444.84375,0.548828125,0.75830078125,0.357177734375,-1.9531248807907104,-0.0915527269244194,0.4577636420726776,93.33334350585938,28990.0,1.0
2888.7900898,332061.375,332221.0625,332880.25,332412.5625,332321.1875,332495.4375,332651.1875,332758.46875,0.547607421875,0.7587890625,0.361083984375,-1.9226073026657104,-0.2136230319738388,0.5187987685203552,93.33334350585938,28995.0,1.0
2888.8332809,331582.6875,331742.28125,332401.46875,331933.875,331841.875,332016.75,332171.53125,332277.375,0.551513671875,0.757568359375,0.358642578125,-1.8615721464157104,-0.1220703050494194,0.5493163466453552,93.33334350585938,29006.0,1.0
2888.8731902,332154.0,332314.03125,332972.875,332505.0,332413.46875,332588.15625,332743.625,332850.46875,0.5478515625,0.75634765625,0.3564453125,-1.8005369901657104,-0.0610351525247097,0.5493163466453552,93.33334350585938,29012.0,1.0
2888.8850798,331623.0,331782.4375,332441.4375,331974.03125,331882.03125,332057.0,332211.125,332317.34375,0.548583984375,0.760009765625,0.360107421875,-1.8005369901657104,-0.1525878757238388,0.5187987685203552,93.33334350585938,29018.0,1.0
2888.9138356,331739.34375,331898.84375,332558.3125,332090.34375,331998.34375,332173.84375,332327.90625,332434.1875,0.5498046875,0.759521484375,0.35693359375,-1.8615721464157104,-0.1525878757238388,0.5493163466453552,93.33334350585938,29026.0,1.0
2888.9357546,331685.40625,331844.5625,332503.9375,332035.96875,331944.53125,332119.21875,332273.71875,332379.40625,0.550048828125,0.75732421875,0.355224609375,-1.8310545682907104,-0.1525878757238388,0.5493163466453552,93.33334350585938,29031.0,1.0
2888.9663422,331696.15625,331855.75,332514.65625,332046.625,331954.90625,332130.03125,332284.53125,332389.78125,0.548828125,0.75732421875,0.356201171875,-1.8310545682907104,-0.1525878757238388,0.4577636420726776,93.33334350585938,29039.0,1.0
2889.0100985,332238.21875,332397.1875,333056.5625,332588.78125,332497.15625,332672.28125,332826.875,332933.1875,0.549072265625,0.759765625,0.35986328125,-1.8005369901657104,-0.1831054538488388,0.5187987685203552,93.33334350585938,29050.0,1.0
2889.0488335,332147.03125,332306.0,332966.09375,332497.5,332405.9375,332580.90625,332735.40625,332841.53125,0.5517578125,0.75927734375,0.359619140625,-1.9531248807907104,-0.0915527269244194,0.5493163466453552,93.33334350585938,29057.0,1.0
2889.0676428,331810.15625,331970.0,332628.9375,332160.71875,332069.25,332243.84375,332397.90625,332502.59375,0.55126953125,0.7568359375,0.358642578125,-1.8310545682907104,-0.1525878757238388,0.5798339247703552,93.33334350585938,29064.0,1.0
2889.0844977,331847.5,332006.9375,332666.40625,332197.625,332106.78125,332280.96875,332435.0,332539.875,0.550048828125,0.757568359375,0.359375,-1.8920897245407104,0.0,0.5798339247703552,93.33334350585938,29068.0,1.0
2889.1026224,331901.59375,332061.1875,332720.75,332252.53125,332161.4375,332335.6875,332489.71875,332594.5,0.55126953125,0.7587890625,0.360107421875,-1.8310545682907104,-0.1220703050494194,0.4882812201976776,93.33334350585938,29072.0,1.0
2889.1213425,331912.96875,332072.5625,332731.5625,332263.71875,332172.34375,332346.9375,332500.71875,332605.5,0.54931640625,0.760009765625,0.3603515625,-1.9531248807907104,-0.1831054538488388,0.5493163466453552,93.33334350585938,29077.0,1.0
2889.1482413,332132.28125,332292.03125,332951.0625,332483.03125,332391.28125,332566.15625,332720.40625,332825.0,0.54931640625,0.76025390625,0.354736328125,-1.8310545682907104,-0.1831054538488388,0.5187987685203552,93.33334350585938,29084.0,1.0
2889.193856,332087.5625,332247.0625,332905.65625,332438.3125,332346.84375,332521.5625,332675.34375,332780.03125,0.552978515625,0.758544921875,0.360107421875,-1.8615721464157104,-0.1220703050494194,0.5187987685203552,93.33334350585938,29094.0,1.0
2889.2138376,332417.21875,332576.625,333235.90625,332767.875,332676.125,332851.1875,333005.4375,333110.5625,0.55029296875,0.75830078125,0.356689453125,-1.8920897245407104,-0.1525878757238388,0.5187987685203552,93.33334350585938,29099.0,1.0
2889.2688146,332249.125,332408.625,333068.09375,332600.0625,332508.0625,332683.28125,332836.96875,332940.96875,0.55126953125,0.760986328125,0.357177734375,-1.9836424589157104,-0.1831054538488388,0.5187987685203552,93.33334350585938,29109.0,1.0
2889.2707514,332277.65625,332437.34375,333096.96875,332628.46875,332536.84375,332712.15625,332866.125,332969.75,0.54931640625,0.758544921875,0.35791015625,-1.8920897245407104,-0.1525878757238388,0.4882812201976776,93.33334350585938,29111.0,1.0
2889.303863,332518.15625,332678.09375,333337.40625,332869.0,332777.4375,332952.59375,333106.46875,333210.96875,0.550537109375,0.757080078125,0.35546875,-1.8920897245407104,-0.2746581733226776,0.4882812201976776,93.33334350585938,29124.0,1.0
2889.3507341,332650.5625,332810.25,333469.90625,333001.5,332909.5,333085.1875,333238.96875,333343.21875,0.549072265625,0.7568359375,0.359619140625,-1.7700194120407104,-0.1831054538488388,0.5493163466453552,93.33334350585938,29133.0,1.0
2889.3763335,332665.3125,332824.28125,333484.03125,333015.78125,332924.15625,333099.125,333252.8125,333356.96875,0.55224609375,0.7607421875,0.353515625,-1.8005369901657104,-0.1220703050494194,0.4882812201976776,93.33334350585938,29141.0,1.0
2889.447503,332205.5,332364.90625,333024.375,332556.25,332464.25,332639.46875,332792.90625,332895.375,0.54931640625,0.75830078125,0.355712890625,-1.7700194120407104,-0.1525878757238388,0.5798339247703552,93.33334350585938,29156.0,1.0
2889.470737,332258.53125,332418.375,333077.40625,332609.0,332517.8125,332692.78125,332845.9375,332948.21875,0.548095703125,0.75927734375,0.357421875,-1.8310545682907104,-0.1525878757238388,0.4272460639476776,93.33334350585938,29164.0,1.0
2889.5063435,332338.625,332498.5,333157.5,332688.84375,332597.90625,332773.0625,332926.03125,333028.21875,0.54931640625,0.7587890625,0.357177734375,-1.8005369901657104,-0.1220703050494194,0.4272460639476776,93.33334350585938,29173.0,1.0
2889.5363281,332522.8125,332681.875,333341.25,332872.5625,332781.8125,332956.15625,333109.0625,333211.875,0.547607421875,0.758544921875,0.357421875,-1.8310545682907104,-0.1220703050494194,0.5798339247703552,93.33334350585938,29180.0,1.0
2889.5576146,332559.65625,332719.3125,333378.25,332909.84375,332818.46875,332993.90625,333146.78125,333249.3125,0.54931640625,0.7578125,0.362060546875,-1.8615721464157104,-0.2136230319738388,0.5798339247703552,93.33334350585938,29186.0,1.0
2889.5700889,332366.78125,332525.9375,333185.21875,332716.46875,332625.53125,332800.59375,332953.03125,333055.21875,0.551513671875,0.7568359375,0.36083984375,-1.8615721464157104,-0.2441406100988388,0.4882812201976776,93.33334350585938,29189.0,1.0
2889.5826254,332416.84375,332576.28125,333235.5625,332767.15625,332675.59375,332850.84375,333004.1875,333105.46875,0.548583984375,0.760498046875,0.36181640625,-1.8005369901657104,-0.1220703050494194,0.5493163466453552,93.33334350585938,29193.0,1.0
2889.5957592,332481.15625,332640.65625,333300.125,332831.4375,332740.0625,332915.46875,333067.84375,333169.75,0.54931640625,0.759765625,0.358154296875,-1.8310545682907104,-0.0915527269244194,0.4272460639476776,93.33334350585938,29197.0,1.0
2889.6288423,332942.5625,333102.875,333761.8125,333293.5,333201.59375,333377.34375,333530.5,333633.25,0.550048828125,0.756591796875,0.362060546875,-1.8615721464157104,-0.03051757626235485,0.5187987685203552,93.33334350585938,29204.0,1.0
2889.6476235,332969.03125,333128.4375,333787.65625,333319.40625,333228.21875,333403.03125,333556.34375,333659.4375,0.55078125,0.76025390625,0.357421875,-1.8615721464157104,-0.1831054538488388,0.5187987685203552,93.33334350585938,29208.0,1.0
2889.6907328,332552.5625,332711.90625,333371.0,332902.53125,332811.21875,332986.125,333139.4375,333240.21875,0.55126953125,0.759521484375,0.35693359375,-1.8920897245407104,-0.2136230319738388,0.5798339247703552,93.33334350585938,29219.0,1.0
2889.7113336,332890.90625,333050.84375,333709.875,333241.8125,333150.09375,333325.3125,333478.3125,333580.59375,0.550537109375,0.760009765625,0.35498046875,-1.8310545682907104,-0.1525878757238388,0.5798339247703552,93.33334350585938,29224.0,1.0
2889.7400797,333076.78125,333236.4375,333895.28125,333426.96875,333335.6875,333510.9375,333663.8125,333766.375,0.5498046875,0.757568359375,0.357666015625,-1.8310545682907104,-0.2136230319738388,0.4272460639476776,93.33334350585938,29233.0,1.0
2889.776343,333013.65625,333173.78125,333832.4375,333364.65625,333273.28125,333448.15625,333600.6875,333702.53125,0.5478515625,0.75927734375,0.35546875,-1.8615721464157104,-0.1831054538488388,0.4882812201976776,93.33334350585938,29242.0,1.0
2889.8094848,332985.5,333145.4375,333804.375,333336.0625,333244.6875,333420.0,333572.625,333674.0,0.548828125,0.7587890625,0.358154296875,-1.8310545682907104,-0.0610351525247097,0.5187987685203552,93.33334350585938,29249.0,1.0
2889.8619787,332825.53125,332986.28125,333644.5,333176.71875,333085.25,333260.59375,333412.75,333513.15625,0.55126953125,0.7578125,0.358642578125,-1.8005369901657104,-0.2441406100988388,0.4272460639476776,93.33334350585938,29261.0,1.0
2889.903841,333134.25,333294.125,333953.0625,333484.8125,333393.375,333568.5,333721.125,333822.25,0.549072265625,0.75732421875,0.357421875,-1.8615721464157104,-0.2441406100988388,0.5187987685203552,93.33334350585938,29267.0,1.0
2889.9363306,332997.90625,333157.78125,333817.15625,333348.65625,333256.84375,333432.25,333584.78125,333685.09375,0.550048828125,0.759521484375,0.358154296875,-1.8615721464157104,-0.1831054538488388,0.6713866591453552,93.33334350585938,29280.0,1.0
2889.9619212,333282.84375,333442.96875,334102.34375,333633.5,333542.21875,333717.625,333869.90625,333971.28125,0.54931640625,0.755615234375,0.3583984375,-1.8920897245407104,-0.1220703050494194,0.4882812201976776,93.33334350585938,29287.0,1.0
2889.9657372,332804.875,332965.1875,333624.375,333155.375,333064.0625,333239.40625,333390.6875,333490.625,0.551025390625,0.75732421875,0.358154296875,-1.7700194120407104,-0.1220703050494194,0.5493163466453552,93.33334350585938,29289.0,1.0
2889.9844866,332869.09375,333028.84375,333688.125,333219.28125,333128.28125,333302.96875,333455.0625,333554.75,0.551025390625,0.756591796875,0.3544921875,-1.8615721464157104,-0.1525878757238388,0.6103515028953552,93.33334350585938,29293.0,1.0
2890.0058063,333172.25,333332.375,333991.59375,333523.0,333431.34375,333607.03125,333759.03125,333859.96875,0.551025390625,0.75927734375,0.360107421875,-1.8005369901657104,-0.2441406100988388,0.5187987685203552,93.33334350585938,29299.0,1.0
2890.0276357,333121.84375,333282.0625,333940.96875,333472.40625,333380.65625,333556.25,333708.25,333808.125,0.547119140625,0.76025390625,0.358154296875,-1.8005369901657104,-0.2136230319738388,0.6103515028953552,93.33334350585938,29303.0,1.0
2890.0438165,333064.4375,333224.1875,333883.3125,333414.8125,333323.53125,333498.40625,333650.75,333750.4375,0.550048828125,0.759521484375,0.35595703125,-1.9836424589157104,-0.0915527269244194,0.4882812201976776,93.33334350585938,29307.0,1.0
2890.0519934,333011.3125,333171.375,333829.9375,333361.53125,333270.0625,333446.125,333597.21875,333696.90625,0.5498046875,0.75830078125,0.358154296875,-1.8310545682907104,-0.2136230319738388,0.5187987685203552,93.33334350585938,29311.0,1.0
2890.0688128,333286.0625,333445.9375,334104.9375,333636.28125,333545.09375,333720.40625,333872.5,333972.4375,0.550048828125,0.75830078125,0.358642578125,-1.8920897245407104,-0.1831054538488388,0.5798339247703552,93.33334350585938,29313.0,1.0
2890.0926152,333316.90625,333476.96875,334136.4375,333667.40625,333576.09375,333751.4375,333903.4375,334003.5625,0.549072265625,0.7587890625,0.35986328125,-1.8310545682907104,-0.2441406100988388,0.4577636420726776,93.33334350585938,29320.0,1.0
2890.1150657,333463.375,333623.125,334282.34375,333813.65625,333722.1875,333897.875,334049.78125,334149.9375,0.550048828125,0.758544921875,0.357421875,-1.8615721464157104,-0.1831054538488388,0.5187987685203552,93.33334350585938,29325.0,1.0
2890.1376216,333240.75,333400.5,334059.1875,333590.78125,333499.40625,333675.1875,333826.28125,333925.59375,0.55029296875,0.757568359375,0.356201171875,-1.8005369901657104,-0.1220703050494194,0.4577636420726776,93.33334350585938,29330.0,1.0
2890.1400533,332938.0,333097.875,333756.625,333288.125,333196.84375,333372.34375,333523.34375,333622.0625,0.54833984375,0.76025390625,0.35791015625,-1.7395018339157104,-0.0915527269244194,0.4882812201976776,93.33334350585938,29331.0,1.0
2890.1832349,333477.59375,333637.53125,334296.09375,333827.875,333736.40625,333912.1875,334063.46875,334163.15625,0.551025390625,0.757568359375,0.358642578125,-1.8310545682907104,-0.1525878757238388,0.6103515028953552,93.33334350585938,29342.0,1.0
2890.202633,333358.75,333518.875,334177.8125,333709.25,333617.9375,333793.625,333945.28125,334043.71875,0.551513671875,0.75830078125,0.35595703125,-1.8615721464157104,-0.0915527269244194,0.4577636420726776,93.33334350585938,29349.0,1.0
2890.2413263,333592.46875,333752.96875,334411.78125,333943.40625,333851.84375,334027.0625,334179.0625,334277.78125,0.54931640625,0.75927734375,0.357666015625,-1.8920897245407104,-0.1220703050494194,0.3967284858226776,93.33334350585938,29358.0,1.0
2890.2757159,333547.3125,333707.4375,334366.28125,333898.15625,333805.96875,333981.84375,334133.5625,334232.09375,0.5478515625,0.759765625,0.35791015625,-1.8615721464157104,-0.1220703050494194,0.5798339247703552,93.33334350585938,29366.0,1.0
2890.3144253,333390.78125,333550.90625,334209.75,333741.59375,333650.125,333825.5625,333976.28125,334074.71875,0.55126953125,0.758056640625,0.357666015625,-1.8920897245407104,-0.2746581733226776,0.3967284858226776,93.33334350585938,29376.0,1.0
2890.3550644,333697.53125,333857.84375,334516.9375,334048.34375,333956.96875,334132.5,334283.6875,334382.46875,0.54931640625,0.75732421875,0.356201171875,-1.9531248807907104,-0.0610351525247097,0.5187987685203552,93.33334350585938,29383.0,1.0
2890.377628,333713.875,333874.46875,334532.75,334065.0,333973.625,334149.03125,334300.40625,334398.125,0.54931640625,0.757080078125,0.35888671875,-1.8615721464157104,-0.2136230319738388,0.5493163466453552,93.33334350585938,29392.0,1.0
2890.4150653,333508.4375,333668.65625,334327.5,333859.15625,333767.96875,333943.03125,334094.125,334191.21875,0.5517578125,0.759765625,0.357421875,-1.8310545682907104,-0.1831054538488388,0.5798339247703552,93.33334350585938,29401.0,1.0
2890.4461728,333427.6875,333587.8125,334245.84375,333778.25,333687.0625,333862.03125,334012.875,334109.6875,0.551513671875,0.76025390625,0.3564453125,-1.8310545682907104,-0.1831054538488388,0.5493163466453552,93.33334350585938,29407.0,1.0
2890.4461789,333797.21875,333957.59375,334615.8125,334147.78125,334056.5,334231.8125,334383.0,334480.90625,0.55224609375,0.75927734375,0.360595703125,-1.8920897245407104,-0.1220703050494194,0.5493163466453552,93.33334350585938,29408.0,1.0
2890.4676318,333762.25,333922.65625,334580.96875,334112.5625,334021.4375,334196.40625,334348.0625,334445.15625,0.548095703125,0.758056640625,0.3564453125,-1.8920897245407104,-0.1220703050494194,0.6103515028953552,93.33334350585938,29413.0,1.0
2890.4807212,333449.40625,333610.0,334268.125,333800.34375,333708.625,333884.03125,334034.84375,334131.15625,0.55029296875,0.760498046875,0.354248046875,-1.8005369901657104,-0.2136230319738388,0.5493163466453552,93.33334350585938,29418.0,1.0
2890.4919764,333874.09375,334034.40625,334693.15625,334224.65625,334132.9375,334308.96875,334459.8125,334557.15625,0.549560546875,0.75927734375,0.3564453125,-1.8310545682907104,-0.1831054538488388,0.5493163466453552,93.33334350585938,29421.0,1.0
2890.5474331,333908.875,334069.71875,334728.21875,334259.96875,334168.59375,334343.9375,334494.9375,334592.40625,0.5517578125,0.757568359375,0.356689453125,-1.9531248807907104,-0.2746581733226776,0.4882812201976776,93.33334350585938,29429.0,1.0
2890.5569837,333517.625,333677.9375,334336.59375,333868.28125,333777.0,333952.15625,334102.8125,334198.90625,0.54931640625,0.75634765625,0.359130859375,-1.8920897245407104,-0.2136230319738388,0.5187987685203552,93.33334350585938,29432.0,1.0
2890.5769761,333438.4375,333598.5625,334257.3125,333789.0,333697.625,333872.75,334023.15625,334118.8125,0.54638671875,0.757080078125,0.35595703125,-1.9226073026657104,-0.1831054538488388,0.5798339247703552,93.33334350585938,29440.0,1.0
2890.5907015,333773.6875,333933.8125,334592.9375,334125.15625,334033.6875,334208.5,334359.125,334455.96875,0.548828125,0.7587890625,0.358642578125,-1.9226073026657104,-0.1525878757238388,0.6103515028953552,93.33334350585938,29445.0,1.0
2890.6126155,333743.65625,333904.21875,334562.90625,334095.375,334003.28125,334178.8125,334329.28125,334425.375,0.550048828125,0.7578125,0.3583984375,-1.8920897245407104,-0.1831054538488388,0.3662109076976776,93.33334350585938,29451.0,1.0
2890.631337,333831.1875,333991.59375,334650.15625,334181.9375,334090.375,334266.0625,334416.34375,334512.375,0.551025390625,0.7568359375,0.361083984375,-1.8615721464157104,-0.2441406100988388,0.5798339247703552,93.33334350585938,29455.0,1.0
2890.6688338,333533.5625,333694.125,334351.96875,333884.21875,333793.09375,333967.96875,334118.28125,334213.03125,0.55078125,0.7587890625,0.35595703125,-1.9531248807907104,-0.2441406100988388,0.4882812201976776,93.33334350585938,29465.0,1.0
2890.6994717,333772.625,333932.84375,334591.78125,334123.71875,334032.09375,334207.59375,334357.625,334452.65625,0.5498046875,0.7578125,0.35546875,-1.8310545682907104,-0.1525878757238388,0.4882812201976776,93.33334350585938,29472.0,1.0
2890.7194941,333546.5,333706.71875,334365.75,333897.4375,333806.15625,333981.40625,334131.15625,334225.65625,0.5517578125,0.757568359375,0.360107421875,-1.8920897245407104,-0.0915527269244194,0.4272460639476776,93.33334350585938,29477.0,1.0
2890.7519296,333657.375,333817.5,334477.15625,334008.75,333917.03125,334092.4375,334242.28125,334336.875,0.550048828125,0.757080078125,0.35693359375,-1.8005369901657104,-0.2136230319738388,0.4272460639476776,93.33334350585938,29486.0,1.0
2890.7800633,333803.46875,333963.5,334622.34375,334154.40625,334062.40625,334238.09375,334388.09375,334482.59375,0.5498046875,0.76171875,0.35595703125,-1.8920897245407104,-0.1220703050494194,0.4272460639476776,93.33334350585938,29493.0,1.0
2890.8200586,333981.9375,334142.78125,334801.0625,334332.9375,334241.375,334416.8125,334567.0,334661.78125,0.553466796875,0.75830078125,0.357421875,-1.8615721464157104,-0.0915527269244194,0.5493163466453552,93.33334350585938,29501.0,1.0
2890.8500605,334147.0625,334307.71875,334966.21875,334497.96875,334405.8125,334582.375,334731.78125,334827.0,0.550537109375,0.757080078125,0.35888671875,-1.9226073026657104,-0.1525878757238388,0.3356933295726776,93.33334350585938,29509.0,1.0
2890.8757406,334263.75,334423.78125,335082.875,334614.65625,334522.5625,334698.96875,334848.71875,334944.03125,0.548583984375,0.75927734375,0.357177734375,-1.8615721464157104,-0.1525878757238388,0.3967284858226776,93.33334350585938,29517.0,1.0
2890.9382275,333802.5,333962.78125,334621.625,334153.15625,334061.5,334237.1875,334386.5,334479.375,0.551025390625,0.759521484375,0.3544921875,-1.8615721464157104,-0.2136230319738388,0.5493163466453552,93.33334350585938,29531.0,1.0
2890.9613043,334248.28125,334408.03125,335066.96875,334598.5625,334506.9375,334682.78125,334832.53125,334926.875,0.552001953125,0.7578125,0.357666015625,-1.9226073026657104,-0.2136230319738388,0.5798339247703552,93.33334350585938,29537.0,1.0
2890.9668242,333821.8125,333981.46875,334640.0625,334172.09375,334080.625,334256.21875,334405.34375,334498.0625,0.551513671875,0.75830078125,0.35693359375,-1.8920897245407104,-0.2441406100988388,0.4577636420726776,93.33334350585938,29540.0,1.0
2890.9876133,334141.15625,334301.28125,334960.125,334491.90625,334400.25,334576.03125,334725.25,334819.3125,0.551513671875,0.7587890625,0.357421875,-1.9531248807907104,-0.1525878757238388,0.4882812201976776,93.33334350585938,29545.0,1.0
2890.9988025,333828.0625,333988.53125,334647.28125,334179.25,334087.34375,334263.28125,334412.15625,334505.125,0.546875,0.756591796875,0.356201171875,-1.9531248807907104,-0.0915527269244194,0.5187987685203552,93.33334350585938,29548.0,1.0
2891.0244846,334418.40625,334579.0,335237.5625,334769.0625,334677.5,334853.375,335002.875,335097.375,0.54638671875,0.75830078125,0.359619140625,-1.8920897245407104,-0.0610351525247097,0.5187987685203552,93.33334350585938,29554.0,1.0
2891.0426081,333976.125,334136.34375,334795.1875,334326.5,334235.03125,334410.71875,334559.5,334652.84375,0.545166015625,0.755859375,0.359619140625,-1.8920897245407104,-0.0915527269244194,0.4882812201976776,93.33334350585938,29557.0,1.0
2891.0588192,334346.25,334506.75,335165.59375,334697.28125,334605.1875,334781.125,334930.53125,335024.40625,0.549560546875,0.757080078125,0.360107421875,-1.8005369901657104,-0.2136230319738388,0.5187987685203552,93.33334350585938,29562.0,1.0
2891.0669875,333911.90625,334072.21875,334730.875,334262.21875,334170.75,334346.71875,334495.46875,334587.65625,0.55029296875,0.75830078125,0.358642578125,-1.8005369901657104,-0.2746581733226776,0.6103515028953552,93.33334350585938,29565.0,1.0
2891.0869989,334234.3125,334394.625,335053.65625,334585.0625,334493.25,334670.0,334818.34375,334911.3125,0.551513671875,0.759765625,0.35400390625,-1.8920897245407104,-0.2136230319738388,0.4882812201976776,93.33334350585938,29570.0,1.0
2891.1026133,334266.6875,334427.34375,335085.75,334617.15625,334525.53125,334701.84375,334850.6875,334943.78125,0.552734375,0.760009765625,0.357666015625,-1.8920897245407104,-0.3051757514476776,0.5187987685203552,93.33334350585938,29572.0,1.0
2891.1238257,333975.65625,334135.53125,334794.375,334326.15625,334234.40625,334410.28125,334559.21875,334650.6875,0.552001953125,0.76171875,0.355224609375,-1.9226073026657104,-0.1831054538488388,0.5187987685203552,93.33334350585938,29577.0,1.0
2891.1488218,334475.8125,334635.75,335294.59375,334826.09375,334734.65625,334910.5,335060.1875,335153.15625,0.5517578125,0.75927734375,0.35986328125,-1.9226073026657104,0.0,0.5493163466453552,93.33334350585938,29583.0,1.0
2891.1857186,334191.21875,334351.34375,335010.09375,334541.78125,334450.6875,334625.9375,334775.3125,334866.96875,0.54638671875,0.755615234375,0.36181640625,-1.9531248807907104,-0.0915527269244194,0.5798339247703552,93.33334350585938,29589.0,1.0
2891.2132149,334629.78125,334790.53125,335449.28125,334980.59375,334888.78125,335064.46875,335213.5,335307.125,0.548095703125,0.7626953125,0.356201171875,-1.8615721464157104,-0.2441406100988388,0.5798339247703552,93.33334350585938,29600.0,1.0
2891.2390639,334166.09375,334325.875,334984.90625,334516.59375,334424.84375,334600.625,334748.6875,334840.875,0.5498046875,0.7587890625,0.355224609375,-2.014159917831421,-0.1831054538488388,0.6103515028953552,93.33334350585938,29607.0,1.0
2891.2719703,334471.53125,334631.75,335291.03125,334822.625,334730.53125,334906.84375,335055.25,335146.90625,0.552001953125,0.7578125,0.359619140625,-1.8920897245407104,-0.1220703050494194,0.5187987685203552,93.33334350585938,29616.0,1.0
2891.3063051,334148.03125,334308.4375,334967.5625,334498.53125,334407.0625,334582.90625,334730.8125,334821.625,0.54443359375,0.757568359375,0.35546875,-1.8310545682907104,-0.2136230319738388,0.3967284858226776,93.33334350585938,29623.0,1.0
2891.3238166,334694.9375,334855.25,335514.28125,335045.6875,334954.0625,335129.90625,335278.78125,335370.59375,0.543701171875,0.7578125,0.360595703125,-1.8005369901657104,-0.3051757514476776,0.5798339247703552,93.33334350585938,29629.0,1.0
2891.3507038,334328.375,334488.78125,335147.53125,334679.03125,334587.5625,334763.78125,334911.59375,335002.25,0.554931640625,0.758056640625,0.3564453125,-1.8310545682907104,-0.2746581733226776,0.5798339247703552,93.33334350585938,29635.0,1.0
2891.3569622,334773.1875,334933.40625,335592.25,335123.65625,335032.0,335208.3125,335356.90625,335448.5625,0.559814453125,0.76171875,0.3505859375,-1.8310545682907104,-0.2746581733226776,0.6103515028953552,93.33334350585938,29638.0,1.0
2891.4176109,334796.875,334957.8125,335616.03125,335147.4375,335056.5,335232.28125,335380.625,335471.96875,0.5439453125,0.76123046875,0.357177734375,-1.8920897245407104,0.0,0.5493163466453552,93.33334350585938,29650.0,1.0
2891.4376199,334348.59375,334509.4375,335167.90625,334699.6875,334608.21875,334783.90625,334931.34375,335021.46875,0.543701171875,0.758544921875,0.359375,-1.8920897245407104,-0.1525878757238388,0.5493163466453552,93.33334350585938,29656.0,1.0
2891.4819099,334617.0625,334777.1875,335436.5,334967.8125,334876.25,335051.875,335200.46875,335290.84375,0.553466796875,0.75439453125,0.35986328125,-1.7700194120407104,-0.2136230319738388,0.5798339247703552,93.33334350585938,29666.0,1.0
2891.5126107,334890.9375,335051.15625,335710.15625,335241.5,335150.375,335326.25,335474.125,335565.0625,0.549072265625,0.7626953125,0.357177734375,-1.8615721464157104,-0.2136230319738388,0.4577636420726776,93.33334350585938,29675.0,1.0
2891.5150475,334392.75,334552.96875,335211.71875,334743.125,334651.59375,334827.625,334974.6875,335064.125,0.55029296875,0.7607421875,0.356689453125,-1.8005369901657104,-0.2746581733226776,0.4577636420726776,93.33334350585938,29677.0,1.0
2891.5731408,334393.375,334553.15625,335211.90625,334743.21875,334652.3125,334827.71875,334975.0625,335064.03125,0.55322265625,0.758544921875,0.355224609375,-1.8920897245407104,-0.2136230319738388,0.5798339247703552,93.33334350585938,29690.0,1.0
2891.6157221,334914.0,335074.3125,335733.40625,335264.28125,335172.75,335348.6875,335495.9375,335586.34375,0.548095703125,0.756591796875,0.361328125,-1.8615721464157104,-0.2136230319738388,0.4882812201976776,93.33334350585938,29701.0,1.0
2891.6776041,334813.84375,334974.4375,335633.28125,335164.25,335073.125,335249.0,335396.4375,335485.21875,0.552001953125,0.760498046875,0.35400390625,-1.6174315214157104,-0.2136230319738388,0.3967284858226776,93.33334350585938,29716.0,1.0
2891.6907098,334755.21875,334915.34375,335574.0,335105.78125,335014.5,335190.625,335337.15625,335426.21875,0.550048828125,0.764404296875,0.353759765625,-1.8920897245407104,-0.2441406100988388,0.4272460639476776,93.33334350585938,29720.0,1.0
2891.7100747,334699.25,334858.90625,335517.9375,335049.625,334958.4375,335134.125,335280.90625,335369.53125,0.55126953125,0.761474609375,0.354248046875,-1.8920897245407104,-0.1525878757238388,0.5493163466453552,93.33334350585938,29724.0,1.0
2891.7300566,335110.78125,335271.09375,335930.03125,335461.53125,335370.15625,335546.0,335693.34375,335782.6875,0.54931640625,0.7578125,0.35888671875,-1.8615721464157104,-0.0915527269244194,0.4577636420726776,93.33334350585938,29730.0,1.0
2891.7300626,334707.8125,334867.9375,335527.0625,335058.3125,334967.28125,335143.15625,335289.6875,335377.3125,0.551513671875,0.75732421875,0.3583984375,-1.9531248807907104,-0.1525878757238388,0.4882812201976776,93.33334350585938,29731.0,1.0
2891.7676042,335204.46875,335364.53125,336023.34375,335554.96875,335463.125,335639.4375,335787.15625,335876.375,0.549072265625,0.7568359375,0.362548828125,-1.8310545682907104,-0.2441406100988388,0.5187987685203552,93.33334350585938,29738.0,1.0
2891.7700603,334904.59375,335064.46875,335723.21875,335254.375,335163.8125,335339.46875,335486.375,335574.34375,0.54638671875,0.75732421875,0.35986328125,-1.8005369901657104,-0.3051757514476776,0.3662109076976776,93.33334350585938,29741.0,1.0
2891.789471,334846.03125,335006.0,335665.375,335196.6875,335105.15625,335281.1875,335428.0,335515.71875,0.549072265625,0.760986328125,0.357421875,-1.7700194120407104,-0.1831054538488388,0.5187987685203552,93.33334350585938,29745.0,1.0
2891.8250612,335197.875,335357.625,336017.46875,335548.25,335456.96875,335633.1875,335780.625,335869.03125,0.54931640625,0.761474609375,0.357177734375,-1.8615721464157104,-0.2136230319738388,0.5493163466453552,93.33334350585938,29750.0,1.0
2891.8269576,335153.59375,335313.46875,335973.1875,335504.25,335412.78125,335588.75,335736.09375,335824.78125,0.54931640625,0.759765625,0.35693359375,-1.8615721464157104,-0.2441406100988388,0.5493163466453552,93.33334350585938,29751.0,1.0
2891.8319612,334750.5625,334910.5,335569.78125,335101.03125,335009.9375,335185.875,335332.34375,335419.6875,0.5498046875,0.760498046875,0.354248046875,-1.8615721464157104,-0.3051757514476776,0.6103515028953552,93.33334350585938,29753.0,1.0
2891.8632118,335315.78125,335476.09375,336135.03125,335666.25,335574.90625,335751.1875,335897.5625,335986.6875,0.55224609375,0.757568359375,0.360107421875,-1.7700194120407104,-0.1831054538488388,0.5187987685203552,93.33334350585938,29763.0,1.0
2891.8819513,335104.0625,335264.65625,335923.75,335454.5625,335363.4375,335539.125,335685.65625,335773.65625,0.54833984375,0.75732421875,0.356201171875,-1.7700194120407104,-0.03051757626235485,0.3051757514476776,93.33334350585938,29768.0,1.0
2891.9219781,334846.125,335006.25,335665.375,335196.53125,335105.3125,335281.09375,335427.5625,335513.90625,0.5478515625,0.75830078125,0.357666015625,-1.9531248807907104,-0.1525878757238388,0.4882812201976776,93.33334350585938,29778.0,1.0
2891.940057,335208.6875,335369.0,336028.0,335558.53125,335467.78125,335643.5625,335790.1875,335877.71875,0.55126953125,0.760009765625,0.3583984375,-1.7700194120407104,-0.2441406100988388,0.4882812201976776,93.33334350585938,29783.0,1.0
2891.9726048,335090.21875,335250.96875,335909.71875,335440.6875,335349.84375,335525.53125,335672.15625,335758.71875,0.552490234375,0.75732421875,0.3564453125,-2.014159917831421,-0.1220703050494194,0.3051757514476776,93.33334350585938,29791.0,1.0
2892.0193992,335388.65625,335549.0625,336208.15625,335739.40625,335647.65625,335824.4375,335970.53125,336057.78125,0.546142578125,0.75634765625,0.3583984375,-1.8920897245407104,0.03051757626235485,0.4882812201976776,93.33334350585938,29801.0,1.0
2892.0525882,335154.15625,335315.0,335973.75,335504.71875,335413.96875,335589.71875,335735.8125,335822.09375,0.548095703125,0.7607421875,0.356689453125,-1.8005369901657104,-0.1831054538488388,0.5798339247703552,93.33334350585938,29810.0,1.0
2892.0787809,335339.40625,335499.53125,336158.28125,335689.78125,335598.40625,335774.96875,335921.0,336007.34375,0.551513671875,0.75830078125,0.3583984375,-1.8310545682907104,-0.2136230319738388,0.5493163466453552,93.33334350585938,29818.0,1.0
2892.1150623,335491.28125,335652.5,336311.34375,335841.9375,335750.84375,335927.5,336073.5,336160.25,0.551025390625,0.760498046875,0.36083984375,-1.9531248807907104,-0.0610351525247097,0.5187987685203552,93.33334350585938,29825.0,1.0
2892.1575935,335336.8125,335497.71875,336157.03125,335687.71875,335596.53125,335772.75,335918.40625,336003.875,0.546630859375,0.757080078125,0.359375,-1.8615721464157104,-0.1220703050494194,0.4882812201976776,93.33334350585938,29837.0,1.0
2892.1700478,335043.71875,335203.9375,335863.6875,335394.28125,335303.09375,335479.40625,335624.78125,335708.71875,0.54931640625,0.7578125,0.359130859375,-1.8310545682907104,-0.3051757514476776,0.6103515028953552,93.33334350585938,29840.0,1.0
2892.1906922,335222.09375,335382.40625,336041.59375,335572.65625,335481.71875,335657.5,335803.3125,335887.5625,0.551025390625,0.758056640625,0.3583984375,-1.8615721464157104,-0.2136230319738388,0.5187987685203552,93.33334350585938,29845.0,1.0
2892.2050452,335616.28125,335776.9375,336436.15625,335966.9375,335876.0,336052.0625,336198.25,336284.15625,0.550537109375,0.75830078125,0.360107421875,-1.8310545682907104,-0.3356933295726776,0.4882812201976776,93.33334350585938,29846.0,1.0
2892.2175982,335214.59375,335374.8125,336034.25,335565.0625,335473.6875,335649.8125,335795.375,335879.59375,0.552490234375,0.757080078125,0.3564453125,-1.7395018339157104,-0.1525878757238388,0.4272460639476776,93.33334350585938,29852.0,1.0
2892.2450502,335711.5,335872.4375,336531.28125,336062.59375,335971.6875,336147.46875,336293.46875,336378.9375,0.550537109375,0.75927734375,0.35693359375,-1.8615721464157104,-0.1525878757238388,0.5798339247703552,93.33334350585938,29859.0,1.0
2892.2475994,335393.65625,335554.59375,336213.4375,335744.40625,335653.5625,335829.25,335974.71875,336059.46875,0.5517578125,0.759033203125,0.353515625,-1.8920897245407104,-0.2746581733226776,0.5493163466453552,93.33334350585938,29860.0,1.0
2892.2757054,335153.59375,335313.8125,335972.75,335503.90625,335412.96875,335589.03125,335733.78125,335817.71875,0.549560546875,0.76123046875,0.357177734375,-1.8005369901657104,-0.0915527269244194,0.4577636420726776,93.33334350585938,29865.0,1.0
2892.2838079,335317.125,335477.15625,336136.71875,335667.25,335576.3125,335752.09375,335897.65625,335981.34375,0.54833984375,0.7587890625,0.35693359375,-1.9836424589157104,-0.1220703050494194,0.4577636420726776,93.33334350585938,29870.0,1.0
2892.3062807,335272.96875,335433.4375,336093.0,335623.4375,335532.4375,335708.71875,335853.3125,335937.53125,0.549072265625,0.75537109375,0.36181640625,-1.9226073026657104,-0.1525878757238388,0.3967284858226776,93.33334350585938,29874.0,1.0
2892.3212945,335242.03125,335402.96875,336062.6875,335592.59375,335502.03125,335677.71875,335822.8125,335906.3125,0.546875,0.754638671875,0.35888671875,-1.8005369901657104,-0.2746581733226776,0.6713866591453552,93.33334350585938,29878.0,1.0
2892.3419704,335577.75,335737.78125,336397.625,335928.0625,335836.84375,336013.15625,336158.90625,336242.40625,0.548095703125,0.758056640625,0.3603515625,-1.8005369901657104,-0.2441406100988388,0.5187987685203552,93.33334350585938,29883.0,1.0
2892.3532035,335239.0,335398.75,336058.40625,335588.9375,335498.1875,335673.6875,335818.78125,335901.75,0.55078125,0.758056640625,0.36083984375,-1.8615721464157104,-0.2441406100988388,0.5187987685203552,93.33334350585938,29886.0,1.0
2892.3832035,335696.3125,335856.53125,336516.15625,336046.96875,335955.5,336131.71875,336277.0,336361.3125,0.5517578125,0.759765625,0.356201171875,-1.8920897245407104,-0.2136230319738388,0.4882812201976776,93.33334350585938,29893.0,1.0
2892.396294,335777.125,335937.875,336597.15625,336127.96875,336036.9375,336212.90625,336358.28125,336442.5,0.5517578125,0.76123046875,0.3544921875,-1.8615721464157104,-0.1525878757238388,0.5187987685203552,93.33334350585938,29897.0,1.0
2892.4632211,335669.3125,335830.3125,336489.0,336020.0625,335929.46875,336105.25,336249.90625,336334.03125,0.5498046875,0.758056640625,0.357177734375,-1.8615721464157104,-0.0610351525247097,0.4882812201976776,93.33334350585938,29908.0,1.0
2892.4662948,335629.25,335789.03125,336448.3125,335979.5625,335888.625,336064.5625,336209.40625,336292.84375,0.549072265625,0.757080078125,0.359375,-1.9226073026657104,-0.2136230319738388,0.4882812201976776,93.33334350585938,29910.0,1.0
2892.4889573,335425.75,335586.59375,336245.34375,335776.6875,335685.40625,335861.53125,336006.09375,336088.34375,0.546142578125,0.758544921875,0.35986328125,-1.8310545682907104,-0.1831054538488388,0.4882812201976776,93.33334350585938,29919.0,1.0
2892.5400471,335762.28125,335922.6875,336581.875,336113.125,336021.5625,336197.875,336342.28125,336425.59375,0.552490234375,0.7578125,0.357421875,-1.8005369901657104,-0.2136230319738388,0.5493163466453552,93.33334350585938,29933.0,1.0
2892.5638104,335839.8125,336000.28125,336659.03125,336190.71875,336099.1875,336275.5625,336420.40625,336503.125,0.551513671875,0.7607421875,0.356201171875,-1.8310545682907104,-0.1220703050494194,0.5187987685203552,93.33334350585938,29939.0,1.0
2892.5907031,336006.46875,336167.40625,336826.59375,336357.75,336266.46875,336442.125,336587.4375,336670.75,0.548095703125,0.758056640625,0.356689453125,-1.9226073026657104,-0.0610351525247097,0.5187987685203552,93.33334350585938,29946.0,1.0
2892.6275915,335912.84375,336073.4375,336732.71875,336263.59375,336172.3125,336348.625,336492.9375,336575.8125,0.54833984375,0.75830078125,0.361083984375,-1.8615721464157104,-0.1525878757238388,0.5493163466453552,93.33334350585938,29954.0,1.0
2892.6726006,335737.0,335898.09375,336556.75,336087.90625,335996.71875,336173.03125,336317.15625,336398.59375,0.549072265625,0.75634765625,0.356689453125,-1.8005369901657104,-0.1525878757238388,0.5187987685203552,93.33334350585938,29966.0,1.0
2892.6969613,336117.15625,336278.25,336937.28125,336468.4375,336377.0625,336553.71875,336698.125,336780.53125,0.550048828125,0.76025390625,0.3544921875,-1.8615721464157104,-0.1525878757238388,0.4577636420726776,93.33334350585938,29972.0,1.0
2892.7012896,335719.0,335879.78125,336539.15625,336070.125,335978.75,336155.15625,336298.90625,336379.71875,0.550048828125,0.760009765625,0.35791015625,-1.8310545682907104,-0.0915527269244194,0.4577636420726776,93.33334350585938,29973.0,1.0
2892.7362847,336218.875,336380.0,337038.75,336570.34375,336478.71875,336654.9375,336799.40625,336882.125,0.5498046875,0.758056640625,0.35693359375,-1.8615721464157104,-0.1220703050494194,0.6103515028953552,93.33334350585938,29980.0,1.0
