Time,FZ,C3,CZ,C4,PZ,PO7,OZ,PO8,AccX,AccY,AccZ,Gyro1,Gyro2,Gyro3,Battery,Counter,Validation
24028.6040263,136151.359375,136263.65625,136892.734375,136460.796875,136390.703125,136489.953125,136674.484375,136789.015625,0.506591796875,0.790771484375,0.34423828125,-1.9531248807907104,-0.2441406100988388,0.4577636420726776,60.0,2567.0,1.0
24028.6183557,141475.375,141589.453125,142221.390625,141787.84375,141717.484375,141819.046875,142003.234375,142117.671875,0.505126953125,0.7919921875,0.341796875,-1.8920897245407104,-0.3356933295726776,0.5187987685203552,60.0,2568.0,1.0
24028.6183641,139637.703125,139751.0625,140382.46875,139949.015625,139878.65625,139979.5,140164.046875,140278.484375,0.506103515625,0.792236328125,0.346435546875,-1.7395018339157104,-0.2746581733226776,0.4272460639476776,60.0,2569.0,1.0
24028.6202625,134310.5625,134422.328125,135051.125,134618.84375,134549.109375,134647.265625,134832.34375,134947.234375,0.505859375,0.793212890625,0.34912109375,-1.8615721464157104,-0.2136230319738388,0.4882812201976776,60.0,2570.0,1.0
24028.6227815,135311.03125,135423.234375,136051.859375,135619.75,135550.28125,135648.8125,135833.609375,135948.328125,0.505126953125,0.792236328125,0.347900390625,-1.7700194120407104,-0.2746581733226776,0.3967284858226776,60.0,2571.0,1.0
24028.626513,141058.375,141172.1875,141803.765625,141370.40625,141300.3125,141401.703125,141585.703125,141700.5,0.507080078125,0.79248046875,0.34765625,-1.8310545682907104,-0.1831054538488388,0.5187987685203552,60.0,2572.0,1.0
24028.6433573,140612.328125,140725.96875,141357.53125,140924.0,140854.0,140955.109375,141139.03125,141253.546875,0.5048828125,0.793212890625,0.346435546875,-1.9226073026657104,-0.1831054538488388,0.4272460639476776,60.0,2573.0,1.0
24028.6433662,135068.015625,135180.140625,135809.109375,135376.390625,135307.09375,135405.4375,135589.796875,135704.953125,0.5068359375,0.792724609375,0.3486328125,-1.8920897245407104,-0.3051757514476776,0.4272460639476776,60.0,2574.0,1.0
24028.6452597,134672.671875,134784.6875,135413.40625,134980.9375,134911.65625,135009.640625,135194.53125,135309.421875,0.505615234375,0.79150390625,0.350341796875,-1.8615721464157104,-0.3356933295726776,0.4577636420726776,60.0,2575.0,1.0
24028.6477716,140419.75,140533.375,141165.21875,140731.59375,140661.140625,140762.4375,140946.625,141061.328125,0.50537109375,0.791748046875,0.34619140625,-1.8310545682907104,-0.3356933295726776,0.3967284858226776,60.0,2576.0,1.0
24028.6509319,141379.703125,141493.609375,142125.90625,141692.1875,141621.546875,141723.296875,141907.203125,142021.921875,0.507080078125,0.79150390625,0.341552734375,-1.8310545682907104,-0.2136230319738388,0.3356933295726776,60.0,2577.0,1.0
24028.65094,135993.46875,136106.125,136735.546875,136303.0,136233.265625,136331.515625,136516.328125,136631.65625,0.5068359375,0.7900390625,0.341796875,-1.8005369901657104,-0.2441406100988388,0.3967284858226776,60.0,2578.0,1.0
24028.6527638,134247.984375,134359.734375,134988.359375,134555.984375,134486.515625,134584.234375,134769.046875,134884.375,0.50732421875,0.793212890625,0.345947265625,-1.8615721464157104,-0.1831054538488388,0.4577636420726776,60.0,2579.0,1.0
24028.6615189,139593.0,139706.28125,140337.3125,139903.953125,139834.125,139934.53125,140118.71875,140233.875,0.50634765625,0.792724609375,0.34765625,-1.9531248807907104,-0.1831054538488388,0.4577636420726776,60.0,2580.0,1.0
24028.6646095,141934.828125,142048.734375,142680.9375,142247.21875,142177.125,142278.78125,142462.78125,142577.578125,0.507568359375,0.792724609375,0.349609375,-1.8920897245407104,-0.3051757514476776,0.5187987685203552,60.0,2581.0,1.0
24028.6646171,137052.40625,137164.703125,137794.671875,137361.84375,137292.28125,137391.4375,137575.796875,137690.953125,0.507080078125,0.79296875,0.3486328125,-1.9226073026657104,-0.3051757514476776,0.4272460639476776,60.0,2582.0,1.0
24028.6667563,134073.453125,134184.765625,134813.390625,134380.84375,134312.0,134409.453125,134594.609375,134709.40625,0.507568359375,0.79296875,0.34814453125,-1.9226073026657104,-0.3662109076976776,0.4272460639476776,60.0,2583.0,1.0
24028.6802633,138644.390625,138757.671875,139387.984375,138954.90625,138884.890625,138985.203125,139169.65625,139284.28125,0.50537109375,0.791748046875,0.347900390625,-1.8005369901657104,-0.2441406100988388,0.5187987685203552,60.0,2584.0,1.0
24028.6827615,142246.421875,142361.03125,142992.96875,142559.515625,142489.0625,142590.8125,142775.171875,142889.53125,0.5068359375,0.792236328125,0.34521484375,-1.8310545682907104,-0.2441406100988388,0.4272460639476776,60.0,2585.0,1.0
24028.6859292,138194.046875,138307.140625,138937.90625,138504.828125,138434.828125,138534.421875,138719.3125,138833.75,0.505859375,0.79248046875,0.346435546875,-1.8615721464157104,-0.2441406100988388,0.3967284858226776,60.0,2586.0,1.0
24028.6859375,134159.46875,134271.3125,134899.578125,134467.921875,134398.1875,134495.90625,134680.625,134795.6875,0.505615234375,0.791748046875,0.345947265625,-1.9531248807907104,-0.2746581733226776,0.3356933295726776,60.0,2587.0,1.0
24028.6877787,137663.421875,137775.796875,138405.9375,137973.75,137903.03125,138002.8125,138187.4375,138302.046875,0.505615234375,0.791259765625,0.342529296875,-1.8310545682907104,-0.2136230319738388,0.3662109076976776,60.0,2588.0,1.0
24028.6965135,142324.65625,142438.734375,143070.9375,142637.3125,142566.765625,142668.515625,142853.046875,142967.390625,0.507080078125,0.79052734375,0.343017578125,-1.8005369901657104,-0.2441406100988388,0.4272460639476776,60.0,2589.0,1.0
24028.7008769,139375.375,139488.921875,140119.609375,139686.421875,139616.0625,139716.5625,139901.546875,140015.71875,0.508056640625,0.791259765625,0.34521484375,-1.8615721464157104,-0.2746581733226776,0.3662109076976776,60.0,2590.0,1.0
24028.7008855,134516.921875,134628.671875,135257.390625,134825.015625,134755.71875,134853.359375,135038.96875,135153.578125,0.507080078125,0.79052734375,0.346435546875,-1.8310545682907104,-0.2441406100988388,0.4272460639476776,60.0,2591.0,1.0
24028.706517,136732.25,136845.078125,137474.59375,137042.03125,136972.21875,137071.28125,137256.171875,137370.96875,0.505859375,0.78955078125,0.345703125,-1.8310545682907104,-0.2746581733226776,0.3662109076976776,60.0,2592.0,1.0
24028.7127634,142123.578125,142237.84375,142869.9375,142436.59375,142366.40625,142468.140625,142652.0625,142766.5,0.506103515625,0.790283203125,0.346435546875,-1.7700194120407104,-0.1831054538488388,0.3051757514476776,60.0,2593.0,1.0
24028.7171021,140436.546875,140550.375,141181.84375,140748.40625,140678.40625,140779.421875,140963.515625,141078.046875,0.50732421875,0.7900390625,0.34814453125,-1.8310545682907104,-0.1220703050494194,0.2746581733226776,60.0,2594.0,1.0
24028.7171097,135066.6875,135178.703125,135807.6875,135375.21875,135306.109375,135404.015625,135589.265625,135703.796875,0.505615234375,0.790283203125,0.347412109375,-1.8615721464157104,-0.2136230319738388,0.2746581733226776,60.0,2595.0,1.0
24028.7227643,135900.046875,136012.421875,136641.671875,136208.671875,136139.65625,136238.0,136422.984375,136537.875,0.50537109375,0.791015625,0.345458984375,-1.7395018339157104,-0.3051757514476776,0.3356933295726776,60.0,2596.0,1.0
24028.7271105,141671.71875,141785.53125,142417.90625,141983.734375,141913.828125,142015.296875,142199.484375,142314.015625,0.506591796875,0.79052734375,0.3466796875,-1.8310545682907104,-0.3356933295726776,0.4577636420726776,60.0,2597.0,1.0
24028.7271185,141373.53125,141487.4375,142119.46875,141685.65625,141615.65625,141716.859375,141901.3125,142015.296875,0.5078125,0.79296875,0.345458984375,-1.8920897245407104,-0.3356933295726776,0.5187987685203552,60.0,2598.0,1.0
24028.7352617,135837.640625,135950.109375,136579.265625,136146.53125,136077.0625,136175.59375,136360.40625,136475.109375,0.5078125,0.793701171875,0.345703125,-1.8920897245407104,-0.2441406100988388,0.5493163466453552,60.0,2599.0,1.0
24028.7390109,135274.90625,135387.296875,136016.265625,135583.90625,135514.609375,135612.15625,135797.3125,135912.375,0.50634765625,0.790771484375,0.344970703125,-1.8615721464157104,-0.2136230319738388,0.4272460639476776,60.0,2600.0,1.0
24028.7427298,141003.578125,141117.5625,141749.578125,141315.875,141246.046875,141346.625,141531.609375,141645.78125,0.506591796875,0.79052734375,0.3447265625,-1.8920897245407104,-0.3356933295726776,0.5187987685203552,60.0,2601.0,1.0
24028.7521197,142127.6875,142241.953125,142874.40625,142440.875,142370.515625,142471.90625,142656.53125,142770.515625,0.5048828125,0.791748046875,0.345458984375,-1.8920897245407104,-0.3051757514476776,0.4272460639476776,60.0,2602.0,1.0
24028.7521282,136780.078125,136893.0,137522.78125,137090.046875,137020.578125,137119.28125,137303.828125,137418.890625,0.504638671875,0.79248046875,0.344482421875,-1.8920897245407104,-0.3051757514476776,0.4272460639476776,60.0,2603.0,1.0
24028.7540137,134886.96875,134999.265625,135627.796875,135195.34375,135126.3125,135223.953125,135408.9375,135524.171875,0.50439453125,0.793212890625,0.34326171875,-1.8920897245407104,-0.1831054538488388,0.3662109076976776,60.0,2604.0,1.0
24028.762766,140152.421875,140266.6875,140897.890625,140464.0,140394.078125,140494.75,140679.203125,140793.90625,0.503662109375,0.7939453125,0.34423828125,-1.8310545682907104,-0.1525878757238388,0.4577636420726776,60.0,2605.0,1.0
24028.765875,142668.15625,142782.765625,143415.59375,142981.078125,142911.078125,143013.0,143197.0,143311.703125,0.50634765625,0.79248046875,0.345458984375,-1.8005369901657104,-0.2136230319738388,0.3662109076976776,60.0,2606.0,1.0
24028.7658831,137858.59375,137971.609375,138601.828125,138168.828125,138099.015625,138198.515625,138383.046875,138497.859375,0.5048828125,0.78955078125,0.34326171875,-1.8920897245407104,-0.2441406100988388,0.3662109076976776,60.0,2607.0,1.0
24028.7677707,134740.609375,134852.8125,135481.4375,135049.328125,134979.953125,135077.765625,135262.75,135377.640625,0.50634765625,0.789794921875,0.343994140625,-1.8920897245407104,-0.2746581733226776,0.3967284858226776,60.0,2608.0,1.0
24028.7765197,139199.15625,139312.796875,139943.921875,139510.46875,139440.734375,139540.78125,139725.140625,139840.03125,0.505615234375,0.792236328125,0.343505859375,-1.8615721464157104,-0.1831054538488388,0.3967284858226776,60.0,2609.0,1.0
24028.7809294,142939.328125,143054.125,143686.9375,143252.96875,143182.59375,143284.34375,143468.703125,143583.40625,0.507568359375,0.7919921875,0.346923828125,-1.8005369901657104,-0.1220703050494194,0.4882812201976776,60.0,2610.0,1.0
24028.7809379,139000.765625,139114.5,139745.171875,139311.640625,139242.078125,139341.765625,139526.5625,139641.28125,0.505859375,0.792236328125,0.347412109375,-1.8310545682907104,-0.2441406100988388,0.3967284858226776,60.0,2611.0,1.0
24028.7827562,134854.25,134966.640625,135595.171875,135162.53125,135093.234375,135190.953125,135375.765625,135491.28125,0.50634765625,0.793701171875,0.344970703125,-1.8615721464157104,-0.3051757514476776,0.4272460639476776,60.0,2612.0,1.0
24028.7890242,138209.609375,138322.4375,138952.671875,138519.671875,138450.203125,138549.796875,138734.25,138849.40625,0.5078125,0.792236328125,0.3447265625,-1.8005369901657104,-0.2441406100988388,0.4882812201976776,60.0,2613.0,1.0
24028.8002648,142971.515625,143086.125,143718.6875,143284.609375,143214.609375,143316.53125,143500.703125,143615.421875,0.5068359375,0.792724609375,0.343994140625,-1.9226073026657104,-0.1831054538488388,0.3967284858226776,60.0,2614.0,1.0
24028.8033454,140156.4375,140270.609375,140901.65625,140467.671875,140397.9375,140498.328125,140683.140625,140797.40625,0.507568359375,0.79296875,0.346435546875,-1.8920897245407104,-0.2441406100988388,0.4577636420726776,60.0,2615.0,1.0
24028.8033531,135242.453125,135355.5625,135984.078125,135551.171875,135482.25,135580.0625,135765.125,135879.75,0.508056640625,0.791748046875,0.34423828125,-1.8920897245407104,-0.2136230319738388,0.3967284858226776,60.0,2616.0,1.0
24028.8052666,137280.484375,137393.40625,138023.546875,137590.546875,137520.984375,137620.140625,137804.859375,137919.484375,0.5078125,0.79296875,0.344970703125,-1.8920897245407104,-0.2136230319738388,0.4882812201976776,60.0,2617.0,1.0
24028.8077673,142742.71875,142857.0625,143490.15625,143055.90625,142985.71875,143087.734375,143271.828125,143385.828125,0.50732421875,0.79248046875,0.346923828125,-1.8310545682907104,-0.2746581733226776,0.4272460639476776,60.0,2618.0,1.0
24028.8165111,141216.8125,141330.984375,141962.90625,141529.109375,141459.09375,141560.578125,141744.578125,141858.75,0.506103515625,0.792236328125,0.344482421875,-1.8920897245407104,-0.2746581733226776,0.3967284858226776,60.0,2619.0,1.0
24028.8196024,135813.5,135926.328125,136555.578125,136122.671875,136053.5625,136151.90625,136336.34375,136451.234375,0.507080078125,0.791015625,0.345947265625,-1.9226073026657104,-0.3051757514476776,0.3967284858226776,60.0,2620.0,1.0
24028.8196108,136469.125,136581.765625,137211.46875,136778.46875,136709.265625,136808.15625,136992.421875,137107.21875,0.505859375,0.790283203125,0.3447265625,-1.8615721464157104,-0.2746581733226776,0.3967284858226776,60.0,2621.0,1.0
24028.8252629,142259.828125,142374.453125,143006.734375,142572.9375,142502.484375,142604.5,142788.765625,142903.03125,0.505859375,0.791015625,0.344482421875,-1.9226073026657104,-0.2136230319738388,0.3967284858226776,60.0,2622.0,1.0
24028.82777,142139.671875,142254.46875,142886.578125,142452.59375,142382.5,142484.15625,142668.421875,142782.859375,0.505126953125,0.791015625,0.344482421875,-1.8615721464157104,-0.2441406100988388,0.3967284858226776,60.0,2623.0,1.0
24028.8365103,136588.203125,136701.390625,137330.828125,136898.0,136828.359375,136927.328125,137111.515625,137226.578125,0.506103515625,0.789794921875,0.342041015625,-1.8615721464157104,-0.2441406100988388,0.3051757514476776,60.0,2624.0,1.0
24028.8396006,135865.796875,135978.546875,136607.703125,136175.15625,136105.40625,136204.296875,136388.65625,136503.453125,0.50537109375,0.79052734375,0.34130859375,-1.9226073026657104,-0.2136230319738388,0.3356933295726776,60.0,2625.0,1.0
24028.8396088,141565.578125,141679.75,142311.6875,141878.234375,141807.703125,141909.265625,142093.53125,142207.890625,0.5048828125,0.791748046875,0.343505859375,-1.9226073026657104,-0.2441406100988388,0.3662109076976776,60.0,2626.0,1.0
24028.8452561,142857.0625,142971.875,143603.796875,143170.34375,143100.078125,143201.90625,143386.171875,143500.53125,0.505859375,0.7919921875,0.3447265625,-1.9531248807907104,-0.2746581733226776,0.3662109076976776,60.0,2627.0,1.0
24028.8565335,137549.328125,137662.875,138292.3125,137859.84375,137790.203125,137889.609375,138073.796875,138188.5,0.50830078125,0.793701171875,0.344482421875,-1.9531248807907104,-0.3051757514476776,0.3662109076976776,60.0,2628.0,1.0
24028.8590071,135505.765625,135618.5,136247.390625,135814.75,135745.640625,135844.078125,136028.609375,136143.046875,0.5068359375,0.793212890625,0.34619140625,-1.9836424589157104,-0.3356933295726776,0.4882812201976776,60.0,2629.0,1.0
24028.8615509,140704.421875,140818.765625,141449.984375,141016.8125,140946.984375,141047.828125,141231.828125,141346.359375,0.505859375,0.79248046875,0.347412109375,-1.8310545682907104,-0.2746581733226776,0.3967284858226776,60.0,2630.0,1.0
24028.8865226,143358.28125,143473.171875,144106.078125,143672.375,143602.0,143704.015625,143888.28125,144002.375,0.50634765625,0.7919921875,0.34423828125,-1.8310545682907104,-0.2441406100988388,0.3356933295726776,60.0,2631.0,1.0
24028.8890191,138645.375,138758.828125,139389.421875,138956.234375,138886.5,138986.375,139171.0,139285.171875,0.508056640625,0.79345703125,0.343994140625,-1.8920897245407104,-0.1831054538488388,0.4272460639476776,60.0,2632.0,1.0
24028.891526,135403.125,135515.5,136144.484375,135711.9375,135642.46875,135740.90625,135925.703125,136040.328125,0.505615234375,0.7919921875,0.350341796875,-1.8310545682907104,-0.2441406100988388,0.4577636420726776,60.0,2633.0,1.0
24028.8940157,139738.109375,139852.015625,140483.140625,140049.59375,139979.59375,140080.171875,140264.4375,140379.0625,0.504638671875,0.79248046875,0.3447265625,-1.8310545682907104,-0.2441406100988388,0.3356933295726776,60.0,2634.0,1.0
24028.8965117,143619.359375,143734.421875,144367.6875,143933.0,143862.8125,143965.453125,144149.09375,144263.4375,0.507080078125,0.791015625,0.3447265625,-1.8310545682907104,-0.2136230319738388,0.4577636420726776,60.0,2635.0,1.0
24028.8990206,139820.359375,139934.359375,140565.65625,140132.03125,140062.296875,140162.609375,140347.0625,140461.140625,0.50732421875,0.793212890625,0.343994140625,-1.8615721464157104,-0.2441406100988388,0.4272460639476776,60.0,2636.0,1.0
24028.9015249,135565.484375,135677.953125,136306.9375,135874.5625,135805.09375,135903.265625,136087.984375,136202.234375,0.507568359375,0.79248046875,0.344970703125,-1.8310545682907104,-0.2746581733226776,0.3662109076976776,60.0,2637.0,1.0
24028.9040172,138751.234375,138864.421875,139495.28125,139061.921875,138992.265625,139092.046875,139276.5,139390.9375,0.5068359375,0.79296875,0.3447265625,-1.8310545682907104,-0.2136230319738388,0.3356933295726776,60.0,2638.0,1.0
24028.9065078,143605.765625,143720.734375,144353.921875,143919.765625,143849.671875,143951.859375,144135.859375,144250.203125,0.5078125,0.791748046875,0.3427734375,-1.8005369901657104,-0.1831054538488388,0.4882812201976776,60.0,2639.0,1.0
24028.9121074,140932.765625,141046.75,141678.859375,141245.421875,141175.328125,141276.171875,141460.265625,141574.703125,0.5078125,0.78955078125,0.344482421875,-1.8615721464157104,-0.1831054538488388,0.4577636420726776,60.0,2640.0,1.0
24028.9121139,135957.359375,136069.828125,136699.515625,136266.796875,136197.40625,136295.671875,136480.03125,136594.734375,0.5048828125,0.790283203125,0.34326171875,-1.9531248807907104,-0.2136230319738388,0.4272460639476776,60.0,2641.0,1.0
24028.9140098,137827.484375,137940.578125,138571.171875,138137.984375,138068.34375,138167.765625,138352.125,138466.65625,0.50634765625,0.7919921875,0.341796875,-1.8920897245407104,-0.2746581733226776,0.5187987685203552,60.0,2642.0,1.0
24028.9190132,143348.53125,143463.15625,144096.421875,143662.359375,143591.71875,143694.28125,143878.09375,143992.53125,0.503662109375,0.79248046875,0.3466796875,-1.9226073026657104,-0.3051757514476776,0.4272460639476776,60.0,2643.0,1.0
24028.9215095,141988.03125,142102.03125,142734.3125,142300.6875,142230.328125,142331.984375,142515.796875,142630.421875,0.505615234375,0.79150390625,0.345947265625,-1.8615721464157104,-0.2136230319738388,0.4882812201976776,60.0,2644.0,1.0
24028.9246061,136596.078125,136708.734375,137338.515625,136905.875,136836.140625,136934.84375,137119.28125,137234.0,0.505615234375,0.794189453125,0.346923828125,-1.8920897245407104,-0.3356933295726776,0.4882812201976776,60.0,2645.0,1.0
24028.9246141,137068.765625,137181.953125,137811.65625,137379.109375,137309.09375,137408.515625,137592.78125,137707.40625,0.50537109375,0.791259765625,0.343994140625,-1.8005369901657104,-0.2136230319738388,0.4577636420726776,60.0,2646.0,1.0
24028.9265254,142852.421875,142967.3125,143599.953125,143165.875,143095.875,143197.703125,143381.796875,143495.796875,0.505126953125,0.79150390625,0.34423828125,-1.8005369901657104,-0.2441406100988388,0.3967284858226776,60.0,2647.0,1.0
24028.9352706,142886.125,143000.921875,143633.484375,143199.234375,143129.21875,143231.140625,143415.328125,143529.59375,0.508056640625,0.790771484375,0.344970703125,-1.8310545682907104,-0.1831054538488388,0.3967284858226776,60.0,2648.0,1.0
24028.9383405,137382.046875,137494.609375,138125.203125,137691.765625,137622.296875,137721.359375,137906.0625,138020.59375,0.506591796875,0.7919921875,0.34814453125,-1.8920897245407104,-0.1831054538488388,0.3356933295726776,60.0,2649.0,1.0
24028.9383476,136491.203125,136603.40625,137233.09375,136800.1875,136730.90625,136829.609375,137014.234375,137129.03125,0.505615234375,0.7939453125,0.34765625,-1.9531248807907104,-0.2136230319738388,0.3051757514476776,60.0,2650.0,1.0
24028.9490105,142133.671875,142247.3125,142879.875,142446.0625,142375.875,142477.796875,142661.625,142776.15625,0.50732421875,0.792236328125,0.344970703125,-1.9531248807907104,-0.2746581733226776,0.4272460639476776,60.0,2651.0,1.0
24028.9539702,143613.0,143727.359375,144360.359375,143926.46875,143856.015625,143958.921875,144142.734375,144256.828125,0.505615234375,0.78955078125,0.349365234375,-1.8615721464157104,-0.2441406100988388,0.4577636420726776,60.0,2652.0,1.0
24028.9539786,138432.9375,138546.125,139176.8125,138743.453125,138673.359375,138773.765625,138958.203125,139072.46875,0.50537109375,0.791259765625,0.347412109375,-1.8615721464157104,-0.2746581733226776,0.4272460639476776,60.0,2653.0,1.0
24028.9539825,136216.28125,136328.578125,136958.265625,136525.71875,136455.703125,136554.859375,136739.390625,136853.921875,0.504638671875,0.791015625,0.34814453125,-1.8615721464157104,-0.3051757514476776,0.3967284858226776,60.0,2654.0,1.0
24028.9590076,141264.015625,141377.5625,142009.3125,141575.859375,141505.40625,141606.796875,141791.421875,141905.59375,0.505859375,0.792236328125,0.3466796875,-1.8310545682907104,-0.2746581733226776,0.4882812201976776,60.0,2655.0,1.0
24028.9615113,144066.203125,144180.921875,144813.828125,144380.203125,144309.21875,144411.859375,144595.9375,144710.125,0.506591796875,0.791259765625,0.34375,-1.8005369901657104,-0.1831054538488388,0.3967284858226776,60.0,2656.0,1.0
24028.9677576,139462.015625,139575.75,140206.6875,139773.78125,139702.96875,139803.734375,139987.90625,140102.34375,0.505126953125,0.792236328125,0.34716796875,-1.8005369901657104,-0.2441406100988388,0.4272460639476776,60.0,2657.0,1.0
24028.9770999,136094.0625,136206.53125,136836.484375,136403.578125,136333.75,136432.8125,136617.265625,136731.796875,0.506103515625,0.792236328125,0.34814453125,-1.8310545682907104,-0.2136230319738388,0.4272460639476776,60.0,2658.0,1.0
24028.9771084,140271.0625,140384.703125,141016.71875,140583.1875,140513.078125,140613.84375,140798.03125,140912.375,0.50732421875,0.790283203125,0.346435546875,-1.8615721464157104,-0.1525878757238388,0.4272460639476776,60.0,2659.0,1.0
24028.9795854,144274.171875,144388.703125,145022.78125,144588.34375,144517.890625,144620.53125,144804.703125,144918.53125,0.50830078125,0.79150390625,0.34716796875,-1.9226073026657104,-0.2441406100988388,0.4577636420726776,60.0,2660.0,1.0
24028.9795918,140590.15625,140703.875,141335.546875,140902.359375,140831.90625,140932.765625,141117.5625,141231.375,0.5078125,0.791015625,0.345458984375,-1.8615721464157104,-0.2746581733226776,0.4882812201976776,60.0,2661.0,1.0
24028.9877633,136224.5,136337.0625,136966.578125,136533.9375,136464.109375,136563.0,136747.796875,136862.234375,0.50634765625,0.791259765625,0.34375,-1.7700194120407104,-0.2441406100988388,0.3662109076976776,60.0,2662.0,1.0
24028.9947398,139272.46875,139385.65625,140016.96875,139583.515625,139513.6875,139614.1875,139798.71875,139912.984375,0.50634765625,0.790771484375,0.345458984375,-1.8005369901657104,-0.1831054538488388,0.4272460639476776,60.0,2663.0,1.0
24028.9947467,144227.671875,144342.390625,144975.484375,144541.5,144471.046875,144573.859375,144758.125,144872.484375,0.5048828125,0.7890625,0.34619140625,-1.8310545682907104,-0.2441406100988388,0.3662109076976776,60.0,2664.0,1.0
24028.9965136,141701.390625,141815.65625,142447.5,142014.234375,141943.421875,142045.078125,142229.4375,142343.875,0.507080078125,0.790771484375,0.3466796875,-1.8615721464157104,-0.1831054538488388,0.3967284858226776,60.0,2665.0,1.0
24029.0052697,136619.765625,136732.515625,137362.390625,136929.390625,136859.375,136958.71875,137143.0625,137258.140625,0.50634765625,0.791259765625,0.345703125,-1.7089842557907104,-0.3662109076976776,0.4272460639476776,60.0,2666.0,1.0
24029.0083452,138345.140625,138458.515625,139089.09375,138655.75,138585.65625,138685.609375,138870.328125,138984.859375,0.505615234375,0.79150390625,0.345703125,-1.8310545682907104,-0.2136230319738388,0.4272460639476776,60.0,2667.0,1.0
24029.0083532,143940.59375,144055.484375,144688.84375,144254.40625,144183.875,144286.5,144470.859375,144584.953125,0.506103515625,0.79150390625,0.34619140625,-1.8615721464157104,-0.2441406100988388,0.3967284858226776,60.0,2668.0,1.0
24029.0102661,142775.0,142889.34375,143521.8125,143087.921875,143017.109375,143119.75,143303.65625,143418.28125,0.50732421875,0.791259765625,0.3466796875,-1.8615721464157104,-0.3051757514476776,0.4882812201976776,60.0,2669.0,1.0
24029.0190171,137329.03125,137441.953125,138071.921875,137638.921875,137569.09375,137668.6875,137852.953125,137967.9375,0.507568359375,0.790283203125,0.345703125,-1.8920897245407104,-0.2746581733226776,0.5493163466453552,60.0,2670.0,1.0
24029.0233569,137619.875,137732.96875,138363.390625,137930.390625,137860.734375,137960.0625,138144.25,138259.21875,0.507568359375,0.790283203125,0.34716796875,-1.8310545682907104,-0.2441406100988388,0.5187987685203552,60.0,2671.0,1.0
24029.0233655,143408.171875,143522.703125,144155.609375,143721.984375,143651.453125,143753.734375,143937.375,144052.53125,0.5087890625,0.7919921875,0.344970703125,-1.9226073026657104,-0.2136230319738388,0.4272460639476776,60.0,2672.0,1.0
24029.0315102,143617.03125,143731.640625,144364.65625,143931.03125,143860.296875,143962.9375,144146.671875,144261.46875,0.5078125,0.792724609375,0.343505859375,-1.8310545682907104,-0.2136230319738388,0.3967284858226776,60.0,2673.0,1.0
24029.0358724,138114.03125,138227.390625,138857.625,138425.171875,138354.890625,138454.578125,138638.765625,138754.0,0.506591796875,0.79248046875,0.343994140625,-1.8005369901657104,-0.2136230319738388,0.4882812201976776,60.0,2674.0,1.0
24029.0358805,137066.984375,137180.34375,137809.953125,137377.765625,137307.3125,137406.546875,137590.8125,137705.96875,0.50732421875,0.7919921875,0.345458984375,-1.8615721464157104,-0.2136230319738388,0.4577636420726776,60.0,2675.0,1.0
24029.0377817,142669.9375,142784.921875,143417.296875,142983.671875,142912.859375,143014.875,143199.046875,143313.40625,0.5078125,0.791259765625,0.344970703125,-1.8310545682907104,-0.2441406100988388,0.5187987685203552,60.0,2676.0,1.0
24029.051509,144296.34375,144411.40625,145044.671875,144610.515625,144539.890625,144643.0625,144826.890625,144941.0625,0.50537109375,0.791748046875,0.346923828125,-1.8920897245407104,-0.2746581733226776,0.4577636420726776,60.0,2677.0,1.0
24029.0639699,139099.46875,139212.84375,139843.515625,139410.515625,139340.515625,139441.0,139625.1875,139739.625,0.504638671875,0.790771484375,0.34912109375,-1.8920897245407104,-0.3051757514476776,0.3051757514476776,60.0,2678.0,1.0
24029.0639781,136746.28125,136859.203125,137488.984375,137056.078125,136986.515625,137085.671875,137270.03125,137384.921875,0.5048828125,0.791259765625,0.345947265625,-1.9531248807907104,-0.3051757514476776,0.2441406100988388,60.0,2679.0,1.0
24029.0639967,141771.3125,141885.296875,142517.40625,142084.0625,142013.421875,142115.4375,142299.4375,142413.875,0.505859375,0.791259765625,0.344970703125,-1.8005369901657104,-0.3356933295726776,0.3967284858226776,60.0,2680.0,1.0
24029.0671014,144736.84375,144851.828125,145485.359375,145051.03125,144980.484375,145084.109375,145267.21875,145381.75,0.506103515625,0.792236328125,0.345703125,-1.8005369901657104,-0.3356933295726776,0.3662109076976776,60.0,2681.0,1.0
24029.0671091,140206.6875,140320.59375,140951.890625,140518.546875,140448.171875,140549.296875,140733.203125,140847.828125,0.505859375,0.79150390625,0.3486328125,-1.9531248807907104,-0.2746581733226776,0.4272460639476776,60.0,2682.0,1.0
24029.0690217,136690.578125,136802.96875,137433.375,137000.375,136930.28125,137029.4375,137214.5,137328.765625,0.506103515625,0.789794921875,0.348388671875,-1.9531248807907104,-0.2746581733226776,0.4577636420726776,60.0,2683.0,1.0
24029.0777628,140774.78125,140888.5,141520.796875,141086.8125,141016.53125,141118.015625,141302.015625,141416.640625,0.50390625,0.7900390625,0.34716796875,-1.8005369901657104,-0.2746581733226776,0.4272460639476776,60.0,2684.0,1.0
24029.0820918,144939.53125,145054.328125,145688.671875,145253.984375,145183.4375,145286.609375,145470.34375,145585.046875,0.505126953125,0.788818359375,0.344482421875,-1.8615721464157104,-0.3356933295726776,0.4882812201976776,60.0,2685.0,1.0
24029.0821,141394.375,141508.546875,142140.921875,141707.03125,141636.484375,141738.140625,141922.5,142036.9375,0.50537109375,0.791748046875,0.3447265625,-1.9226073026657104,-0.3051757514476776,0.4577636420726776,60.0,2686.0,1.0
24029.0933476,136924.015625,137037.296875,137667.4375,137234.53125,137164.53125,137263.765625,137448.484375,137562.921875,0.506591796875,0.791748046875,0.34423828125,-1.9531248807907104,-0.3356933295726776,0.5493163466453552,60.0,2687.0,1.0
24029.0933561,139809.453125,139923.53125,140554.65625,140121.125,140050.765625,140151.796875,140336.15625,140450.5,0.506591796875,0.79248046875,0.34716796875,-1.8920897245407104,-0.3051757514476776,0.5493163466453552,60.0,2688.0,1.0
24029.099592,144855.84375,144971.28125,145605.171875,145170.296875,145099.578125,145203.203125,145387.203125,145501.453125,0.504638671875,0.79150390625,0.344970703125,-1.8615721464157104,-0.2441406100988388,0.4882812201976776,60.0,2689.0,1.0
24029.0996005,142481.109375,142595.90625,143229.0,142794.390625,142724.03125,142826.484375,143010.40625,143124.484375,0.50537109375,0.791259765625,0.347412109375,-1.8615721464157104,-0.2746581733226776,0.4882812201976776,60.0,2690.0,1.0
24029.1083477,137340.203125,137453.84375,138083.890625,137650.453125,137580.890625,137680.5,137864.9375,137979.203125,0.5048828125,0.791015625,0.34716796875,-1.7700194120407104,-0.2441406100988388,0.3662109076976776,60.0,2691.0,1.0
24029.108356,138907.6875,139021.15625,139652.359375,139219.09375,139148.828125,139249.5,139433.59375,139547.9375,0.506591796875,0.792724609375,0.3466796875,-1.8005369901657104,-0.2136230319738388,0.4272460639476776,60.0,2692.0,1.0
24029.1146026,144536.578125,144651.375,145285.359375,144851.109375,144780.125,144883.65625,145066.9375,145181.296875,0.505859375,0.79150390625,0.345947265625,-1.8920897245407104,-0.2441406100988388,0.3662109076976776,60.0,2693.0,1.0
24029.114611,143513.5,143628.375,144261.65625,143827.3125,143756.5,143859.40625,144042.96875,144157.671875,0.50634765625,0.7900390625,0.346923828125,-1.8310545682907104,-0.2136230319738388,0.3967284858226776,60.0,2694.0,1.0
24029.1165129,138058.859375,138172.671875,138802.8125,138369.640625,138299.453125,138399.59375,138583.6875,138698.390625,0.5078125,0.7900390625,0.347412109375,-1.8920897245407104,-0.2136230319738388,0.2746581733226776,60.0,2695.0,1.0
24029.130264,138192.171875,138305.53125,138935.953125,138502.59375,138432.765625,138532.8125,138716.984375,138831.703125,0.508056640625,0.7900390625,0.3466796875,-1.8920897245407104,-0.2441406100988388,0.3967284858226776,60.0,2696.0,1.0
24029.1351872,143976.265625,144091.25,144724.328125,144289.8125,144219.90625,144322.53125,144506.1875,144621.0625,0.5068359375,0.79052734375,0.346923828125,-1.8005369901657104,-0.2136230319738388,0.4272460639476776,60.0,2697.0,1.0
24029.135196,144364.65625,144479.8125,145113.171875,144678.203125,144608.28125,144711.546875,144894.828125,145009.453125,0.5078125,0.79296875,0.34765625,-1.9531248807907104,-0.2441406100988388,0.4272460639476776,60.0,2698.0,1.0
24029.1352002,138869.703125,138983.0625,139614.1875,139179.9375,139110.5625,139211.234375,139395.140625,139509.671875,0.507080078125,0.791259765625,0.345703125,-1.9226073026657104,-0.3051757514476776,0.4882812201976776,60.0,2699.0,1.0
24029.1383442,137669.59375,137782.6875,138413.28125,137979.109375,137909.828125,138009.78125,138193.875,138308.3125,0.506103515625,0.793212890625,0.34521484375,-1.8615721464157104,-0.2746581733226776,0.4272460639476776,60.0,2700.0,1.0
24029.1383507,143215.765625,143330.203125,143963.65625,143529.046875,143458.953125,143561.5,143745.328125,143859.953125,0.505859375,0.79150390625,0.343994140625,-1.9226073026657104,-0.2136230319738388,0.4272460639476776,60.0,2701.0,1.0
24029.1490086,145000.328125,145114.953125,145749.5625,145314.328125,145244.234375,145347.859375,145531.140625,145645.84375,0.5068359375,0.79248046875,0.34619140625,-1.8920897245407104,-0.2136230319738388,0.4577636420726776,60.0,2702.0,1.0
24029.1558711,139877.21875,139990.6875,140622.78125,140188.71875,140118.796875,140219.734375,140403.65625,140518.265625,0.505859375,0.792236328125,0.346923828125,-1.8920897245407104,-0.1525878757238388,0.4882812201976776,60.0,2703.0,1.0
24029.1558795,137380.0,137493.09375,138123.5,137690.234375,137620.6875,137720.28125,137904.28125,138019.25,0.50537109375,0.791015625,0.347412109375,-1.8615721464157104,-0.1525878757238388,0.4272460639476776,60.0,2704.0,1.0
24029.1601176,142295.765625,142409.765625,143042.3125,142608.0625,142538.515625,142640.609375,142823.90625,142939.0625,0.506591796875,0.7900390625,0.34716796875,-1.8310545682907104,-0.2441406100988388,0.3967284858226776,60.0,2705.0,1.0
24029.1677666,145409.734375,145524.4375,146158.59375,145723.90625,145653.8125,145757.25,145940.171875,146055.15625,0.5048828125,0.7900390625,0.345947265625,-1.8920897245407104,-0.2746581733226776,0.3662109076976776,60.0,2706.0,1.0
24029.1702644,140990.875,141104.875,141736.625,141302.8125,141232.8125,141334.28125,141518.015625,141632.640625,0.506103515625,0.78955078125,0.345947265625,-1.8920897245407104,-0.1831054538488388,0.4272460639476776,60.0,2707.0,1.0
24029.1727709,137355.046875,137468.515625,138098.734375,137665.46875,137595.46875,137695.328125,137879.328125,137994.40625,0.505615234375,0.79248046875,0.3486328125,-1.9531248807907104,-0.2441406100988388,0.3356933295726776,60.0,2708.0,1.0
24029.1752554,141312.828125,141426.921875,142059.015625,141625.21875,141554.765625,141656.953125,141840.0625,141955.21875,0.50732421875,0.79150390625,0.34912109375,-1.9226073026657104,-0.2441406100988388,0.4272460639476776,60.0,2709.0,1.0
24029.1795835,145566.015625,145681.171875,146315.328125,145880.8125,145810.359375,145914.34375,146097.0,146211.796875,0.5078125,0.791259765625,0.3466796875,-1.9531248807907104,-0.2441406100988388,0.3662109076976776,60.0,2710.0,1.0
24029.17959,142143.0625,142257.5,142889.703125,142455.90625,142386.078125,142487.734375,142671.375,142786.171875,0.50634765625,0.791748046875,0.34765625,-1.9226073026657104,-0.3051757514476776,0.3051757514476776,60.0,2711.0,1.0
24029.1902564,137586.4375,137699.890625,138329.953125,137896.6875,137826.9375,137926.71875,138110.8125,138225.96875,0.50634765625,0.791259765625,0.34619140625,-1.8920897245407104,-0.2441406100988388,0.3356933295726776,60.0,2712.0,1.0
24029.1933378,140332.21875,140446.125,141077.875,140643.984375,140573.96875,140675.265625,140858.828125,140974.0625,0.5068359375,0.790771484375,0.343505859375,-1.8615721464157104,-0.2441406100988388,0.3967284858226776,60.0,2713.0,1.0
24029.1933452,145470.171875,145584.96875,146218.765625,145784.609375,145713.984375,145817.6875,146000.96875,146116.125,0.50537109375,0.791259765625,0.344970703125,-1.8615721464157104,-0.1831054538488388,0.3662109076976776,60.0,2714.0,1.0
24029.1952559,143274.328125,143388.59375,144021.5,143587.703125,143517.34375,143619.625,143803.265625,143918.234375,0.504638671875,0.791259765625,0.3466796875,-1.8615721464157104,-0.2746581733226776,0.3662109076976776,60.0,2715.0,1.0
24029.2040111,138067.984375,138181.265625,138811.9375,138378.40625,138308.9375,138408.71875,138592.265625,138707.515625,0.50439453125,0.790283203125,0.347412109375,-1.8920897245407104,-0.2746581733226776,0.3051757514476776,60.0,2716.0,1.0
24029.2083444,139455.9375,139569.75,140201.140625,139767.34375,139697.515625,139798.015625,139981.65625,140096.8125,0.505859375,0.791748046875,0.345947265625,-1.9226073026657104,-0.1831054538488388,0.3356933295726776,60.0,2717.0,1.0
24029.2083511,145111.90625,145226.890625,145860.875,145426.265625,145356.171875,145459.53125,145642.453125,145757.34375,0.5068359375,0.7939453125,0.346435546875,-1.9531248807907104,-0.1831054538488388,0.3662109076976776,60.0,2718.0,1.0
24029.2115098,144252.625,144367.59375,145000.59375,144566.34375,144496.171875,144599.25,144782.359375,144897.25,0.505859375,0.792724609375,0.343017578125,-1.8920897245407104,-0.2136230319738388,0.4577636420726776,60.0,2719.0,1.0
24029.2202577,138741.21875,138854.765625,139485.53125,139052.265625,138982.265625,139082.484375,139266.484375,139381.109375,0.50537109375,0.790771484375,0.343017578125,-1.8615721464157104,-0.2746581733226776,0.3662109076976776,60.0,2720.0,1.0
24029.2246036,138735.859375,138849.765625,139480.34375,139047.171875,138977.15625,139077.390625,139261.296875,139376.1875,0.5048828125,0.79248046875,0.345458984375,-1.8920897245407104,-0.3356933295726776,0.3662109076976776,60.0,2721.0,1.0
24029.2246118,144520.84375,144635.90625,145269.0,144835.203125,144764.65625,144868.09375,145051.03125,145166.265625,0.50439453125,0.79248046875,0.34375,-1.9531248807907104,-0.2746581733226776,0.5187987685203552,60.0,2722.0,1.0
24029.2352579,145081.15625,145196.40625,145829.765625,145396.140625,145325.0625,145428.953125,145611.875,145726.671875,0.5078125,0.7919921875,0.3466796875,-1.9226073026657104,-0.1831054538488388,0.4577636420726776,60.0,2723.0,1.0
24029.2383403,139647.265625,139761.265625,140392.03125,139959.296875,139889.03125,139989.78125,140173.421875,140288.40625,0.506103515625,0.79345703125,0.34716796875,-1.9226073026657104,-0.1831054538488388,0.3662109076976776,60.0,2724.0,1.0
24029.2383468,138260.75,138374.375,139004.515625,138571.703125,138501.609375,138601.46875,138785.46875,138900.8125,0.50732421875,0.790771484375,0.34423828125,-1.8615721464157104,-0.1831054538488388,0.4577636420726776,60.0,2725.0,1.0
24029.240258,143728.78125,143844.03125,144476.765625,144042.6875,143972.15625,144074.703125,144258.609375,144373.328125,0.506591796875,0.791015625,0.345947265625,-1.9226073026657104,-0.2746581733226776,0.4882812201976776,60.0,2726.0,1.0
24029.2465093,145689.296875,145804.546875,146438.53125,146004.28125,145933.65625,146037.0,146220.5625,146335.171875,0.5087890625,0.791015625,0.34716796875,-1.9226073026657104,-0.2441406100988388,0.4577636420726776,60.0,2727.0,1.0
24029.250275,140643.359375,140757.4375,141388.921875,140955.46875,140885.28125,140986.671875,141170.3125,141285.203125,0.508056640625,0.79345703125,0.3466796875,-1.8920897245407104,-0.2441406100988388,0.3967284858226776,60.0,2728.0,1.0
24029.2546052,137996.09375,138109.734375,138739.515625,138306.875,138236.875,138336.828125,138520.65625,138635.8125,0.507080078125,0.792236328125,0.344482421875,-1.8615721464157104,-0.1831054538488388,0.3967284858226776,60.0,2729.0,1.0
24029.2546136,142789.65625,142904.453125,143537.09375,143103.390625,143032.75,143135.03125,143318.59375,143433.296875,0.505126953125,0.789794921875,0.34521484375,-1.8920897245407104,-0.2441406100988388,0.3051757514476776,60.0,2730.0,1.0
24029.2690083,146073.390625,146188.8125,146822.984375,146388.640625,146317.75,146421.640625,146605.015625,146719.8125,0.506103515625,0.7900390625,0.345947265625,-1.8920897245407104,-0.1525878757238388,0.3356933295726776,60.0,2731.0,1.0
24029.2740042,141766.21875,141880.65625,142512.40625,142078.78125,142008.6875,142110.078125,142294.15625,142409.140625,0.50537109375,0.791015625,0.3447265625,-1.8310545682907104,-0.1831054538488388,0.4882812201976776,60.0,2732.0,1.0
24029.2770951,138003.515625,138117.0625,138747.125,138313.9375,138244.03125,138343.796875,138528.15625,138642.78125,0.507080078125,0.790283203125,0.34326171875,-1.8310545682907104,-0.2746581733226776,0.3356933295726776,60.0,2733.0,1.0
24029.2771029,141804.921875,141919.09375,142551.125,142117.21875,142047.046875,142148.78125,142332.421875,142447.3125,0.505615234375,0.7919921875,0.34521484375,-1.8310545682907104,-0.2746581733226776,0.3051757514476776,60.0,2734.0,1.0
24029.2790094,146175.765625,146291.09375,146925.09375,146490.5625,146420.109375,146523.375,146706.671875,146821.828125,0.504638671875,0.792724609375,0.345703125,-1.8615721464157104,-0.2136230319738388,0.3662109076976776,60.0,2735.0,1.0
24029.2815043,142895.953125,143010.84375,143642.953125,143209.328125,143138.875,143241.25,143424.796875,143539.6875,0.504150390625,0.79345703125,0.347412109375,-1.8615721464157104,-0.2746581733226776,0.3967284858226776,60.0,2736.0,1.0
24029.2877507,138243.578125,138357.125,138987.53125,138554.265625,138484.4375,138584.75,138768.390625,138883.46875,0.50537109375,0.793701171875,0.345703125,-1.7395018339157104,-0.2441406100988388,0.4577636420726776,60.0,2737.0,1.0
24029.2920944,140820.921875,140935.4375,141566.921875,141133.21875,141063.03125,141164.328125,141348.328125,141462.953125,0.508056640625,0.79296875,0.345458984375,-1.7700194120407104,-0.2441406100988388,0.4272460639476776,60.0,2738.0,1.0
24029.2921028,146033.875,146149.296875,146783.203125,146349.125,146277.953125,146381.765625,146565.3125,146679.9375,0.50830078125,0.79150390625,0.345703125,-1.7089842557907104,-0.2746581733226776,0.3967284858226776,60.0,2739.0,1.0
24029.2952515,143992.265625,144107.34375,144740.34375,144306.09375,144235.546875,144338.1875,144521.734375,144636.796875,0.508544921875,0.79150390625,0.34521484375,-1.8615721464157104,-0.2746581733226776,0.4272460639476776,60.0,2740.0,1.0
24029.304195,138742.5625,138856.28125,139486.875,139053.78125,138983.78125,139083.828125,139267.5625,139382.890625,0.506591796875,0.79150390625,0.345458984375,-1.8920897245407104,-0.2746581733226776,0.4577636420726776,60.0,2741.0,1.0
24029.3108693,139957.15625,140071.0625,140702.0,140269.09375,140198.90625,140299.5,140483.3125,140598.375,0.504638671875,0.7919921875,0.3408203125,-1.8920897245407104,-0.1831054538488388,0.5187987685203552,60.0,2742.0,1.0
24029.3108778,145649.421875,145764.21875,146398.21875,145964.046875,145893.328125,145996.953125,146180.328125,146295.390625,0.50390625,0.792236328125,0.343994140625,-1.8310545682907104,-0.2746581733226776,0.4882812201976776,60.0,2743.0,1.0
24029.3127643,144971.09375,145085.8125,145719.609375,145285.546875,145214.46875,145317.90625,145501.1875,145616.171875,0.5068359375,0.7890625,0.344970703125,-1.9836424589157104,-0.3051757514476776,0.4577636420726776,60.0,2744.0,1.0
24029.3165047,139461.75,139575.125,140206.15625,139773.328125,139702.96875,139803.546875,139987.46875,140102.171875,0.507080078125,0.790283203125,0.3447265625,-1.9836424589157104,-0.2136230319738388,0.4882812201976776,60.0,2745.0,1.0
24029.330868,139270.421875,139383.875,140014.734375,139581.640625,139511.453125,139612.125,139796.046875,139911.015625,0.5068359375,0.789306640625,0.342529296875,-1.8920897245407104,-0.2136230319738388,0.3356933295726776,60.0,2746.0,1.0
24029.3308771,145026.890625,145141.328125,145774.953125,145340.703125,145270.25,145373.78125,145557.25,145671.6875,0.507080078125,0.7890625,0.347900390625,-2.014159917831421,-0.1525878757238388,0.3356933295726776,60.0,2747.0,1.0
24029.332753,145779.515625,145894.21875,146528.5625,146094.234375,146023.328125,146127.3125,146310.859375,146425.484375,0.504638671875,0.791748046875,0.34619140625,-2.014159917831421,-0.1831054538488388,0.3967284858226776,60.0,2748.0,1.0
24029.3352617,140362.703125,140476.515625,141108.625,140674.828125,140604.015625,140705.40625,140889.84375,141004.109375,0.506591796875,0.7900390625,0.34619140625,-1.9531248807907104,-0.1525878757238388,0.3967284858226776,60.0,2749.0,1.0
24029.3390023,138819.359375,138932.90625,139564.296875,139130.5,139060.3125,139161.15625,139345.15625,139459.609375,0.5048828125,0.791748046875,0.346923828125,-1.9531248807907104,-0.2136230319738388,0.3967284858226776,60.0,2750.0,1.0
24029.3477646,144227.140625,144342.03125,144975.296875,144541.234375,144470.78125,144573.765625,144757.421875,144871.59375,0.504638671875,0.791015625,0.347412109375,-1.8310545682907104,-0.1525878757238388,0.4272460639476776,60.0,2751.0,1.0
24029.3508666,146367.09375,146482.609375,147116.59375,146682.25,146611.453125,146715.15625,146898.890625,147013.328125,0.5068359375,0.791748046875,0.3466796875,-1.8615721464157104,-0.2441406100988388,0.3356933295726776,60.0,2752.0,1.0
24029.3508744,141402.859375,141517.21875,142149.140625,141715.15625,141645.15625,141746.453125,141930.359375,142045.34375,0.506103515625,0.791748046875,0.345703125,-1.8310545682907104,-0.1525878757238388,0.3356933295726776,60.0,2753.0,1.0
24029.3527693,138600.40625,138713.6875,139344.453125,138911.1875,138841.0,138941.3125,139125.3125,139240.109375,0.505126953125,0.7919921875,0.345703125,-1.8310545682907104,-0.0915527269244194,0.2746581733226776,60.0,2754.0,1.0
24029.3664779,143285.15625,143399.5,144032.140625,143598.25,143527.984375,143630.171875,143814.078125,143928.609375,0.505126953125,0.79150390625,0.344482421875,-1.7700194120407104,-0.2746581733226776,0.4272460639476776,60.0,2755.0,1.0
24029.3694457,146697.90625,146813.234375,147447.484375,147013.0625,146942.25,147046.40625,147229.875,147344.140625,0.506103515625,0.792236328125,0.345703125,-1.9226073026657104,-0.2136230319738388,0.3356933295726776,60.0,2756.0,1.0
24029.369454,142517.234375,142631.859375,143264.234375,142830.15625,142759.96875,142862.34375,143045.8125,143160.34375,0.506103515625,0.7919921875,0.344970703125,-1.8920897245407104,-0.2136230319738388,0.4577636420726776,60.0,2757.0,1.0
24029.3752543,138635.265625,138749.09375,139379.765625,138945.953125,138876.21875,138976.71875,139160.71875,139275.25,0.505859375,0.79248046875,0.34619140625,-1.8920897245407104,-0.1220703050494194,0.4272460639476776,60.0,2758.0,1.0
24029.3777623,142289.953125,142404.578125,143037.140625,142602.703125,142532.515625,142634.890625,142818.359375,142932.96875,0.505859375,0.79296875,0.344970703125,-1.9226073026657104,-0.1525878757238388,0.4882812201976776,60.0,2759.0,1.0
24029.39768,146797.140625,146912.921875,147547.359375,147112.578125,147041.9375,147145.921875,147329.65625,147444.09375,0.5068359375,0.79150390625,0.34423828125,-1.9226073026657104,-0.1831054538488388,0.3967284858226776,60.0,2760.0,1.0
24029.3976869,143689.453125,143804.0625,144437.515625,144003.0,143932.1875,144035.453125,144219.1875,144333.625,0.506591796875,0.791015625,0.3447265625,-1.8920897245407104,-0.2136230319738388,0.5187987685203552,60.0,2761.0,1.0
24029.3976896,138941.671875,139054.671875,139685.984375,139252.171875,139182.265625,139282.9375,139466.84375,139581.640625,0.50634765625,0.7919921875,0.3466796875,-1.8615721464157104,-0.1831054538488388,0.4272460639476776,60.0,2762.0,1.0
24029.4014314,141341.796875,141455.53125,142088.171875,141654.09375,141583.90625,141685.75,141869.296875,141983.921875,0.507568359375,0.791015625,0.34423828125,-1.9226073026657104,-0.3051757514476776,0.4577636420726776,60.0,2763.0,1.0
24029.4014404,146627.1875,146741.796875,147377.21875,146942.25,146871.625,146975.515625,147158.96875,147273.140625,0.504150390625,0.79052734375,0.3447265625,-1.8615721464157104,-0.2746581733226776,0.4272460639476776,60.0,2764.0,1.0
24029.4014447,144748.03125,144862.640625,145496.71875,145061.84375,144991.390625,145094.390625,145278.125,145392.46875,0.50390625,0.793212890625,0.3447265625,-1.9531248807907104,-0.3051757514476776,0.4272460639476776,60.0,2765.0,1.0
24029.4040133,139447.171875,139560.984375,140191.671875,139758.578125,139688.390625,139789.25,139973.25,140087.515625,0.50537109375,0.79052734375,0.349853515625,-1.9531248807907104,-0.2441406100988388,0.5187987685203552,60.0,2766.0,1.0
24029.4065211,140485.453125,140599.546875,141230.9375,140797.75,140727.125,140828.6875,141012.421875,141126.953125,0.505859375,0.79052734375,0.346435546875,-1.8920897245407104,-0.3356933295726776,0.3967284858226776,60.0,2767.0,1.0
24029.4090214,146208.671875,146323.828125,146958.25,146524.0,146453.109375,146556.734375,146740.375,146854.640625,0.506103515625,0.793212890625,0.346923828125,-1.8005369901657104,-0.2441406100988388,0.4577636420726776,60.0,2768.0,1.0
24029.4115092,145700.65625,145815.90625,146449.890625,146015.453125,145944.921875,146048.359375,146231.734375,146346.09375,0.50537109375,0.792236328125,0.3486328125,-1.8310545682907104,-0.3356933295726776,0.4882812201976776,60.0,2769.0,1.0
24029.4177626,140175.484375,140289.484375,140920.6875,140487.15625,140417.0625,140518.09375,140701.90625,140816.625,0.505859375,0.7919921875,0.346923828125,-1.8615721464157104,-0.1831054538488388,0.4272460639476776,60.0,2770.0,1.0
24029.4215199,139824.65625,139938.5625,140570.03125,140136.421875,140066.40625,140167.265625,140350.984375,140465.875,0.506591796875,0.792724609375,0.345458984375,-1.8920897245407104,-0.2746581733226776,0.3662109076976776,60.0,2771.0,1.0
24029.4358662,145567.796875,145683.046875,146316.9375,145882.515625,145812.234375,145915.859375,146098.96875,146213.859375,0.50634765625,0.792724609375,0.344482421875,-1.9531248807907104,-0.2746581733226776,0.3967284858226776,60.0,2772.0,1.0
24029.4358745,146479.75,146595.359375,147229.78125,146794.734375,146724.1875,146828.53125,147011.71875,147126.703125,0.507080078125,0.79150390625,0.345458984375,-1.9531248807907104,-0.3662109076976776,0.4577636420726776,60.0,2773.0,1.0
24029.4377506,141113.09375,141227.171875,141858.921875,141424.953125,141354.765625,141456.234375,141640.59375,141755.03125,0.505126953125,0.792236328125,0.34521484375,-1.8920897245407104,-0.3356933295726776,0.4272460639476776,60.0,2774.0,1.0
24029.4402536,139407.75,139521.390625,140152.0625,139718.53125,139648.4375,139749.28125,139933.453125,140048.078125,0.5068359375,0.79150390625,0.34521484375,-1.8920897245407104,-0.3662109076976776,0.3356933295726776,60.0,2775.0,1.0
24029.4427694,144742.21875,144856.921875,145490.546875,145055.765625,144985.140625,145088.578125,145272.125,145387.203125,0.50537109375,0.789794921875,0.344482421875,-1.8615721464157104,-0.2441406100988388,0.4272460639476776,60.0,2776.0,1.0
24029.4464984,147040.15625,147155.40625,147790.1875,147355.140625,147284.5,147388.65625,147572.125,147686.75,0.50537109375,0.79052734375,0.344970703125,-1.9531248807907104,-0.2441406100988388,0.3967284858226776,60.0,2777.0,1.0
24029.4558796,142154.234375,142268.765625,142901.0625,142466.8125,142396.71875,142498.453125,142682.71875,142796.890625,0.506591796875,0.79248046875,0.3447265625,-1.9836424589157104,-0.3051757514476776,0.4577636420726776,60.0,2778.0,1.0
24029.4558882,139222.40625,139336.40625,139967.25,139533.546875,139463.625,139564.125,139748.5625,139863.0,0.505126953125,0.791748046875,0.3447265625,-1.8920897245407104,-0.2746581733226776,0.4272460639476776,60.0,2779.0,1.0
24029.4577493,143788.0625,143903.046875,144535.953125,144101.96875,144031.609375,144134.609375,144318.15625,144432.59375,0.50439453125,0.7900390625,0.34716796875,-1.8005369901657104,-0.2441406100988388,0.3662109076976776,60.0,2780.0,1.0
24029.4694372,147345.03125,147460.640625,148095.15625,147660.453125,147589.734375,147694.34375,147877.625,147991.984375,0.505859375,0.790771484375,0.34765625,-1.8615721464157104,-0.3051757514476776,0.3662109076976776,60.0,2781.0,1.0
24029.4694455,143275.140625,143389.9375,144022.484375,143588.234375,143517.609375,143620.515625,143804.15625,143918.59375,0.50341796875,0.792236328125,0.34765625,-1.8920897245407104,-0.2746581733226776,0.4882812201976776,60.0,2782.0,1.0
24029.4765059,139273.640625,139387.71875,140018.390625,139584.765625,139514.765625,139615.53125,139799.703125,139913.96875,0.50537109375,0.79052734375,0.34765625,-1.8920897245407104,-0.2441406100988388,0.3662109076976776,60.0,2783.0,1.0
24029.4790106,142794.75,142909.109375,143541.921875,143107.671875,143037.40625,143139.6875,143323.234375,143438.03125,0.506103515625,0.790771484375,0.3447265625,-1.8615721464157104,-0.3356933295726776,0.4272460639476776,60.0,2784.0,1.0
24029.4820861,147402.703125,147518.03125,148152.828125,147717.859375,147647.40625,147751.65625,147934.9375,148049.640625,0.504638671875,0.791015625,0.34619140625,-1.8920897245407104,-0.3356933295726776,0.4577636420726776,60.0,2785.0,1.0
24029.4820943,144413.734375,144528.984375,145161.984375,144727.828125,144657.28125,144760.453125,144944.1875,145058.265625,0.5048828125,0.7890625,0.348388671875,-1.9531248807907104,-0.2746581733226776,0.3967284858226776,60.0,2786.0,1.0
24029.484019,139588.265625,139702.515625,140333.203125,139899.671875,139829.75,139930.328125,140114.421875,140229.125,0.50537109375,0.7900390625,0.34716796875,-1.8920897245407104,-0.2746581733226776,0.3662109076976776,60.0,2787.0,1.0
24029.4977581,141836.671875,141951.5625,142583.390625,142149.328125,142079.140625,142180.890625,142364.890625,142479.5,0.506103515625,0.791259765625,0.34814453125,-1.8615721464157104,-0.2441406100988388,0.3662109076976776,60.0,2788.0,1.0
24029.5264349,147202.875,147318.203125,147952.8125,147518.21875,147447.671875,147551.65625,147734.9375,147849.90625,0.507568359375,0.7900390625,0.34521484375,-1.9836424589157104,-0.1525878757238388,0.3967284858226776,60.0,2789.0,1.0
24029.5264437,145486.078125,145601.328125,146234.78125,145800.703125,145730.15625,145833.34375,146016.890625,146131.515625,0.506591796875,0.792236328125,0.345458984375,-1.8920897245407104,-0.2441406100988388,0.3967284858226776,60.0,2790.0,1.0
24029.5264476,140137.671875,140251.75,140882.96875,140449.515625,140379.328125,140480.1875,140664.265625,140778.796875,0.5068359375,0.79248046875,0.343994140625,-1.8310545682907104,-0.2746581733226776,0.3356933295726776,60.0,2791.0,1.0
24029.5301754,141005.984375,141120.0625,141751.8125,141318.015625,141248.09375,141349.40625,141533.21875,141647.84375,0.506103515625,0.79345703125,0.344482421875,-1.8615721464157104,-0.2441406100988388,0.3967284858226776,60.0,2792.0,1.0
24029.5301816,146760.3125,146875.828125,147510.25,147075.640625,147004.84375,147109.4375,147292.28125,147407.171875,0.505859375,0.7919921875,0.344482421875,-1.8005369901657104,-0.1831054538488388,0.4882812201976776,60.0,2793.0,1.0
24029.5301846,146468.578125,146584.09375,147218.34375,146783.734375,146713.015625,146817.265625,147000.359375,147114.984375,0.506591796875,0.78857421875,0.3466796875,-1.7089842557907104,-0.3051757514476776,0.4272460639476776,60.0,2794.0,1.0
24029.5345415,140953.140625,141067.5,141698.71875,141265.265625,141195.265625,141296.46875,141480.203125,141594.828125,0.5078125,0.791748046875,0.347412109375,-1.7395018339157104,-0.3051757514476776,0.3662109076976776,60.0,2795.0,1.0
24029.5345498,140388.453125,140502.265625,141133.75,140700.125,140630.125,140730.96875,140915.234375,141029.671875,0.5078125,0.792236328125,0.34814453125,-1.8615721464157104,-0.1831054538488388,0.4272460639476776,60.0,2796.0,1.0
24029.5345527,146085.28125,146200.4375,146834.515625,146399.828125,146329.09375,146432.984375,146616.71875,146731.078125,0.50390625,0.791259765625,0.349853515625,-1.9531248807907104,-0.3051757514476776,0.4272460639476776,60.0,2797.0,1.0
24029.5345549,147163.796875,147279.046875,147913.75,147478.875,147407.796875,147512.578125,147695.6875,147810.3125,0.50732421875,0.7939453125,0.34716796875,-1.9531248807907104,-0.3051757514476776,0.3051757514476776,60.0,2798.0,1.0
24029.536513,141817.71875,141932.25,142564.625,142130.453125,142059.828125,142161.921875,142346.015625,142460.109375,0.506103515625,0.792724609375,0.345458984375,-2.014159917831421,-0.2136230319738388,0.5187987685203552,60.0,2799.0,1.0
24029.5390162,139962.15625,140076.0625,140707.640625,140273.65625,140203.5625,140304.953125,140488.859375,140603.125,0.505126953125,0.7890625,0.345458984375,-1.9836424589157104,-0.2746581733226776,0.4272460639476776,60.0,2800.0,1.0
24029.5415031,145237.0,145351.53125,145985.6875,145551.34375,145480.453125,145583.984375,145767.4375,145882.25,0.50732421875,0.791259765625,0.34326171875,-1.8615721464157104,-0.2441406100988388,0.4577636420726776,60.0,2801.0,1.0
24029.5477525,147693.0,147808.34375,148443.3125,148008.703125,147937.53125,148042.046875,148225.515625,148339.953125,0.50732421875,0.792236328125,0.34521484375,-1.8615721464157104,-0.1525878757238388,0.3356933295726776,60.0,2802.0,1.0
24029.5545848,142905.96875,143020.765625,143653.15625,143219.34375,143148.984375,143251.4375,143435.0,143549.171875,0.505126953125,0.790283203125,0.344970703125,-1.8615721464157104,-0.2136230319738388,0.3051757514476776,60.0,2803.0,1.0
24029.5545932,139833.765625,139947.765625,140579.15625,140145.71875,140075.078125,140176.375,140360.296875,140474.375,0.50537109375,0.7900390625,0.342041015625,-1.9226073026657104,-0.2441406100988388,0.3051757514476776,60.0,2804.0,1.0
24029.5608684,144280.421875,144394.875,145028.234375,144593.984375,144523.53125,144626.515625,144810.34375,144924.515625,0.50634765625,0.79150390625,0.347900390625,-1.9836424589157104,-0.2746581733226776,0.3051757514476776,60.0,2805.0,1.0
24029.5608769,147969.1875,148084.421875,148719.484375,148284.609375,148214.0625,148318.671875,148501.875,148616.3125,0.50537109375,0.7900390625,0.3447265625,-1.9226073026657104,-0.2746581733226776,0.4272460639476776,60.0,2806.0,1.0
24029.5690043,144019.0,144133.71875,144766.796875,144332.640625,144262.453125,144365.28125,144548.921875,144663.265625,0.504638671875,0.791015625,0.343994140625,-1.9226073026657104,-0.2441406100988388,0.4577636420726776,60.0,2807.0,1.0
24029.5756851,139909.671875,140023.9375,140654.890625,140221.34375,140151.703125,140252.640625,140436.46875,140551.0,0.506591796875,0.79541015625,0.34521484375,-1.8920897245407104,-0.3662109076976776,0.4577636420726776,60.0,2808.0,1.0
24029.5756934,143271.46875,143386.265625,144018.46875,143584.390625,143514.390625,143617.125,143800.765625,143914.9375,0.506103515625,0.791748046875,0.348388671875,-1.8310545682907104,-0.2441406100988388,0.4577636420726776,60.0,2809.0,1.0
24029.5833369,147978.296875,148093.8125,148728.421875,148293.8125,148222.734375,148327.703125,148511.078125,148625.15625,0.50341796875,0.788330078125,0.34912109375,-1.8920897245407104,-0.2746581733226776,0.4272460639476776,60.0,2810.0,1.0
24029.5833456,145151.609375,145266.765625,145900.03125,145465.96875,145395.328125,145498.6875,145682.328125,145796.234375,0.508056640625,0.7919921875,0.348388671875,-1.8615721464157104,-0.2746581733226776,0.3967284858226776,60.0,2811.0,1.0
24029.5852484,140255.5,140369.234375,141000.53125,140566.90625,140496.90625,140597.9375,140782.296875,140896.28125,0.507568359375,0.794677734375,0.347412109375,-1.9836424589157104,-0.1525878757238388,0.3967284858226776,60.0,2812.0,1.0
24029.5947088,142327.15625,142441.5,143074.0625,142640.171875,142569.984375,142671.90625,142856.171875,142970.4375,0.504638671875,0.789306640625,0.345947265625,-1.8920897245407104,-0.1831054538488388,0.3967284858226776,60.0,2813.0,1.0
24029.5947164,147753.171875,147868.6875,148503.75,148069.046875,147998.328125,148102.75,148286.484375,148400.75,0.50732421875,0.7919921875,0.343994140625,-1.7700194120407104,-0.2136230319738388,0.4272460639476776,60.0,2814.0,1.0
24029.596512,146213.859375,146329.1875,146963.53125,146528.5625,146457.9375,146562.09375,146745.734375,146860.0,0.508056640625,0.794677734375,0.34619140625,-1.7700194120407104,-0.2136230319738388,0.3662109076976776,60.0,2815.0,1.0
24029.6002509,140833.78125,140948.234375,141579.796875,141146.09375,141075.90625,141177.5625,141361.46875,141476.09375,0.50537109375,0.791015625,0.34619140625,-1.8310545682907104,-0.3356933295726776,0.4577636420726776,60.0,2816.0,1.0
24029.6145822,141521.78125,141636.65625,142268.328125,141834.796875,141764.515625,141866.4375,142049.90625,142164.703125,0.50390625,0.7900390625,0.345947265625,-1.8920897245407104,-0.2746581733226776,0.3967284858226776,60.0,2817.0,1.0
24029.6145907,147276.015625,147391.171875,148026.046875,147591.609375,147520.890625,147625.40625,147808.15625,147923.046875,0.506591796875,0.7919921875,0.34326171875,-1.8310545682907104,-0.3051757514476776,0.2746581733226776,60.0,2818.0,1.0
24029.6165021,147127.859375,147242.921875,147877.625,147443.203125,147373.015625,147476.734375,147660.015625,147774.8125,0.506103515625,0.791015625,0.34716796875,-1.8005369901657104,-0.2136230319738388,0.3967284858226776,60.0,2819.0,1.0
24029.6190122,141628.078125,141742.609375,142374.625,141940.921875,141871.09375,141972.390625,142156.203125,142270.5625,0.505859375,0.791748046875,0.345947265625,-1.8920897245407104,-0.1831054538488388,0.4272460639476776,60.0,2820.0,1.0
24029.6215163,140919.984375,141034.328125,141665.625,141232.453125,141162.359375,141263.296875,141447.5625,141561.65625,0.507080078125,0.792724609375,0.343505859375,-1.9836424589157104,-0.2441406100988388,0.4577636420726776,60.0,2821.0,1.0
24029.6302543,146577.734375,146692.8125,147326.96875,146892.453125,146822.09375,146925.53125,147109.625,147223.609375,0.506103515625,0.791259765625,0.345458984375,-1.8920897245407104,-0.1831054538488388,0.3662109076976776,60.0,2822.0,1.0
24029.6333381,147846.6875,147962.203125,148597.0,148161.9375,148091.765625,148195.828125,148379.46875,148494.09375,0.50634765625,0.792724609375,0.34375,-1.8920897245407104,-0.0915527269244194,0.3051757514476776,60.0,2823.0,1.0
24029.6333462,142564.890625,142679.6875,143311.703125,142877.8125,142807.890625,142909.8125,143093.734375,143207.984375,0.50634765625,0.7919921875,0.344970703125,-1.9226073026657104,-0.1525878757238388,0.4272460639476776,60.0,2824.0,1.0
24029.6389963,140530.96875,140645.3125,141276.359375,140842.734375,140773.171875,140874.203125,141057.84375,141172.640625,0.5068359375,0.79052734375,0.343994140625,-1.8615721464157104,-0.2136230319738388,0.3967284858226776,60.0,2825.0,1.0
24029.6483376,145694.75,145810.09375,146444.078125,146009.46875,145938.84375,146042.1875,146226.015625,146340.546875,0.504638671875,0.791015625,0.34521484375,-1.8310545682907104,-0.2441406100988388,0.4882812201976776,60.0,2826.0,1.0
24029.6483461,148379.46875,148494.984375,149130.046875,148695.53125,148624.171875,148729.046875,148912.875,149027.046875,0.506591796875,0.790283203125,0.346435546875,-1.8920897245407104,-0.3051757514476776,0.3967284858226776,60.0,2827.0,1.0
24029.6502541,143738.984375,143853.953125,144487.046875,144052.890625,143982.609375,144084.984375,144268.890625,144383.25,0.507080078125,0.792236328125,0.347412109375,-1.8615721464157104,-0.2136230319738388,0.4272460639476776,60.0,2828.0,1.0
24029.6540022,140494.40625,140608.296875,141240.046875,140806.34375,140736.6875,140837.359375,141021.546875,141135.984375,0.506103515625,0.792236328125,0.34375,-1.8005369901657104,-0.2441406100988388,0.4577636420726776,60.0,2829.0,1.0
24029.6658569,144755.625,144870.0625,145503.875,145069.71875,144999.4375,145102.078125,145285.984375,145400.421875,0.508544921875,0.79150390625,0.34375,-1.8615721464157104,-0.2136230319738388,0.4272460639476776,60.0,2830.0,1.0
24029.6658634,148588.40625,148703.296875,149339.515625,148904.46875,148833.84375,148938.078125,149121.375,149236.171875,0.5078125,0.792236328125,0.34228515625,-1.8920897245407104,-0.2746581733226776,0.4272460639476776,60.0,2831.0,1.0
24029.6683244,144786.375,144900.734375,145534.71875,145100.734375,145030.109375,145133.015625,145316.921875,145431.0,0.505615234375,0.791259765625,0.34423828125,-1.8920897245407104,-0.2136230319738388,0.3662109076976776,60.0,2832.0,1.0
24029.6683306,140571.375,140685.546875,141316.9375,140883.59375,140813.5,140914.34375,141099.0625,141212.78125,0.505615234375,0.791015625,0.345703125,-1.8920897245407104,-0.2441406100988388,0.3967284858226776,60.0,2833.0,1.0
24029.6702514,143749.34375,143864.5,144497.328125,144063.609375,143993.078125,144095.625,144279.4375,144393.703125,0.505859375,0.790771484375,0.3466796875,-1.9226073026657104,-0.2441406100988388,0.3356933295726776,60.0,2834.0,1.0
24029.6789618,148571.6875,148687.03125,149322.53125,148888.015625,148817.109375,148921.453125,149105.0,149219.1875,0.505615234375,0.790771484375,0.34521484375,-1.8920897245407104,-0.2746581733226776,0.3662109076976776,60.0,2835.0,1.0
24029.68835,145907.015625,146021.8125,146656.0625,146221.8125,146151.265625,146254.71875,146438.265625,146552.4375,0.505859375,0.79150390625,0.346435546875,-1.8310545682907104,-0.2441406100988388,0.3967284858226776,60.0,2836.0,1.0
24029.6883588,140927.84375,141042.015625,141673.765625,141240.140625,141170.140625,141271.609375,141455.53125,141569.609375,0.505126953125,0.791259765625,0.349365234375,-1.8005369901657104,-0.0915527269244194,0.3051757514476776,60.0,2837.0,1.0
24029.690246,142807.625,142922.0625,143554.4375,143120.734375,143050.546875,143152.921875,143336.640625,143450.640625,0.50537109375,0.791748046875,0.348388671875,-1.8615721464157104,-0.1525878757238388,0.4882812201976776,60.0,2838.0,1.0
24029.6927526,148309.28125,148424.171875,149059.59375,148624.984375,148553.90625,148658.6875,148841.96875,148956.0625,0.505859375,0.7919921875,0.343017578125,-1.8920897245407104,-0.3356933295726776,0.3967284858226776,60.0,2839.0,1.0
24029.6965027,146993.75,147108.109375,147742.984375,147308.828125,147237.828125,147342.078125,147525.453125,147639.8125,0.507568359375,0.79443359375,0.346923828125,-1.9226073026657104,-0.3662109076976776,0.4577636420726776,60.0,2840.0,1.0
24029.7040101,141583.46875,141697.1875,142329.296875,141895.859375,141825.484375,141927.328125,142111.0625,142225.671875,0.504638671875,0.79345703125,0.346923828125,-1.8615721464157104,-0.2441406100988388,0.4272460639476776,60.0,2841.0,1.0
24029.7108627,142040.0625,142153.796875,142785.984375,142352.359375,142282.1875,142384.109375,142567.75,142682.1875,0.504638671875,0.792724609375,0.344482421875,-1.8920897245407104,-0.3051757514476776,0.4577636420726776,60.0,2842.0,1.0
24029.7108709,147792.25,147906.78125,148542.1875,148107.40625,148036.59375,148141.015625,148324.125,148438.75,0.506591796875,0.790771484375,0.34521484375,-1.8310545682907104,-0.3051757514476776,0.3967284858226776,60.0,2843.0,1.0
24029.7127544,147828.90625,147943.796875,148579.203125,148144.6875,148073.703125,148177.765625,148361.40625,148475.765625,0.505615234375,0.791015625,0.34619140625,-1.8615721464157104,-0.2746581733226776,0.3051757514476776,60.0,2844.0,1.0
24029.721502,142329.03125,142443.296875,143075.9375,142642.046875,142571.59375,142673.421875,142857.609375,142971.953125,0.506103515625,0.791748046875,0.345458984375,-1.8615721464157104,-0.2441406100988388,0.3356933295726776,60.0,2845.0,1.0
24029.7259184,141445.78125,141560.125,142191.609375,141758.34375,141687.796875,141789.546875,141973.640625,142087.8125,0.505859375,0.792724609375,0.34716796875,-1.9226073026657104,-0.2136230319738388,0.3356933295726776,60.0,2846.0,1.0
24029.7259268,147063.046875,147178.375,147812.8125,147378.375,147307.75,147411.734375,147595.1875,147709.546875,0.506591796875,0.79296875,0.345703125,-1.8310545682907104,-0.2746581733226776,0.3662109076976776,60.0,2847.0,1.0
24029.7340082,148514.109375,148629.546875,149265.21875,148830.078125,148759.359375,148863.875,149047.15625,149161.953125,0.505859375,0.791748046875,0.345703125,-1.8920897245407104,-0.3356933295726776,0.3356933295726776,60.0,2848.0,1.0
24029.738343,143296.140625,143410.9375,144043.765625,143609.703125,143539.609375,143641.796875,143825.4375,143940.234375,0.5048828125,0.790283203125,0.345947265625,-1.8920897245407104,-0.2746581733226776,0.4577636420726776,60.0,2849.0,1.0
24029.7383514,141104.609375,141219.046875,141850.609375,141416.984375,141347.078125,141448.375,141631.828125,141746.8125,0.50732421875,0.79052734375,0.345703125,-1.8615721464157104,-0.3051757514476776,0.3967284858226776,60.0,2850.0,1.0
24029.7470832,146179.078125,146293.875,146928.390625,146494.234375,146423.15625,146526.78125,146710.234375,146825.046875,0.50634765625,0.79248046875,0.345703125,-1.8310545682907104,-0.3051757514476776,0.3662109076976776,60.0,2851.0,1.0
24029.7470912,148974.46875,149089.71875,149725.671875,149291.25,149220.078125,149324.765625,149508.046875,149622.859375,0.507080078125,0.79052734375,0.345947265625,-1.8310545682907104,-0.3051757514476776,0.3662109076976776,60.0,2852.0,1.0
24029.7490013,144404.25,144519.328125,145152.59375,144718.703125,144648.34375,144751.328125,144934.625,145049.328125,0.50537109375,0.79150390625,0.3447265625,-1.8005369901657104,-0.2441406100988388,0.3051757514476776,60.0,2853.0,1.0
24029.7527542,141055.96875,141171.03125,141802.0625,141369.0625,141298.796875,141400.1875,141584.265625,141698.625,0.504638671875,0.792236328125,0.34619140625,-1.8310545682907104,-0.3051757514476776,0.3662109076976776,60.0,2854.0,1.0
24029.7614997,145195.6875,145311.46875,145944.46875,145510.484375,145439.953125,145543.125,145726.5,145841.390625,0.505859375,0.79248046875,0.348876953125,-1.8005369901657104,-0.2746581733226776,0.4577636420726776,60.0,2855.0,1.0
24029.7658623,149192.890625,149308.234375,149943.828125,149508.765625,149437.875,149543.375,149726.125,149841.0,0.505859375,0.79052734375,0.34814453125,-1.8615721464157104,-0.2136230319738388,0.4272460639476776,60.0,2856.0,1.0
24029.7658707,145521.9375,145636.828125,146270.890625,145836.5625,145765.921875,145869.546875,146053.015625,146167.359375,0.507568359375,0.790771484375,0.34814453125,-1.8920897245407104,-0.1831054538488388,0.4577636420726776,60.0,2857.0,1.0
24029.7765081,141185.421875,141299.953125,141931.609375,141498.265625,141427.8125,141529.46875,141713.46875,141827.546875,0.5078125,0.79296875,0.34619140625,-1.8920897245407104,-0.2441406100988388,0.3662109076976776,60.0,2858.0,1.0
24029.7795742,144206.578125,144321.46875,144954.921875,144520.671875,144450.296875,144553.484375,144736.671875,144851.203125,0.50537109375,0.79345703125,0.344482421875,-2.075195074081421,-0.2136230319738388,0.3662109076976776,60.0,2859.0,1.0
24029.7795802,149134.328125,149249.671875,149885.625,149450.75,149380.109375,149484.890625,149668.0,149782.625,0.504150390625,0.792236328125,0.3447265625,-1.9836424589157104,-0.3356933295726776,0.3967284858226776,60.0,2860.0,1.0
24029.7815005,146631.203125,146746.453125,147380.703125,146946.28125,146875.734375,146979.625,147163.09375,147277.34375,0.50732421875,0.792724609375,0.345703125,-1.8615721464157104,-0.2136230319738388,0.3356933295726776,60.0,2861.0,1.0
24029.7920808,141577.296875,141692.0,142323.9375,141890.046875,141820.21875,141921.78125,142105.875,142220.21875,0.50537109375,0.791748046875,0.348388671875,-1.8615721464157104,-0.3051757514476776,0.3967284858226776,60.0,2862.0,1.0
24029.792089,143286.578125,143401.46875,144034.015625,143600.125,143530.125,143632.40625,143816.5,143930.84375,0.506591796875,0.790771484375,0.347412109375,-1.8310545682907104,-0.2746581733226776,0.4882812201976776,60.0,2863.0,1.0
24029.7965159,148831.875,148946.9375,149582.625,149147.921875,149077.203125,149181.71875,149365.359375,149479.4375,0.50732421875,0.78955078125,0.34716796875,-1.8615721464157104,-0.3051757514476776,0.3356933295726776,60.0,2864.0,1.0
24029.7989942,147647.765625,147762.921875,148398.0625,147963.8125,147892.921875,147996.984375,148180.8125,148294.890625,0.5068359375,0.790283203125,0.342529296875,-1.8005369901657104,-0.1831054538488388,0.3356933295726776,60.0,2865.0,1.0
24029.8027499,142204.390625,142319.46875,142951.578125,142518.21875,142448.03125,142549.78125,142733.6875,142848.21875,0.50732421875,0.791015625,0.346923828125,-1.8920897245407104,-0.2136230319738388,0.3356933295726776,60.0,2866.0,1.0
24029.8095815,142526.359375,142640.796875,143273.34375,142839.8125,142769.625,142871.640625,143055.28125,143170.0,0.506103515625,0.791748046875,0.347412109375,-1.8615721464157104,-0.2746581733226776,0.3356933295726776,60.0,2867.0,1.0
24029.8095899,148292.125,148407.1875,149042.515625,148607.90625,148537.1875,148641.796875,148825.078125,148939.421875,0.505615234375,0.7919921875,0.347412109375,-1.9226073026657104,-0.1831054538488388,0.3967284858226776,60.0,2868.0,1.0
24029.8114937,148522.875,148638.125,149273.546875,148838.9375,148767.9375,148872.546875,149055.828125,149170.28125,0.50634765625,0.79150390625,0.345458984375,-1.9226073026657104,-0.3356933295726776,0.3662109076976776,60.0,2869.0,1.0
24029.8202501,143040.890625,143155.78125,143787.96875,143354.625,143283.8125,143385.734375,143569.640625,143684.34375,0.508056640625,0.78955078125,0.343994140625,-1.8920897245407104,-0.2441406100988388,0.3967284858226776,60.0,2870.0,1.0
24029.8245879,141985.703125,142100.421875,142732.25,142299.078125,142228.453125,142329.921875,142513.75,142628.546875,0.50634765625,0.78955078125,0.34521484375,-1.8005369901657104,-0.3051757514476776,0.4272460639476776,60.0,2871.0,1.0
24029.8245956,147545.921875,147661.359375,148296.140625,147861.796875,147790.546875,147895.0625,148077.984375,148192.875,0.5048828125,0.789794921875,0.344482421875,-1.8005369901657104,-0.3051757514476776,0.4882812201976776,60.0,2872.0,1.0
24029.8327514,149167.40625,149283.203125,149918.515625,149483.640625,149412.484375,149517.53125,149700.71875,149815.4375,0.50341796875,0.79052734375,0.346435546875,-1.7089842557907104,-0.1831054538488388,0.4882812201976776,60.0,2873.0,1.0
24029.8358594,144011.21875,144126.46875,144758.9375,144324.859375,144254.234375,144357.140625,144540.875,144655.3125,0.505859375,0.7919921875,0.34765625,-1.6784666776657104,-0.1831054538488388,0.3967284858226776,60.0,2874.0,1.0
24029.8358668,141661.15625,141775.609375,142407.265625,141973.640625,141903.359375,142005.46875,142189.375,142303.640625,0.507568359375,0.794677734375,0.34619140625,-1.7700194120407104,-0.2136230319738388,0.3967284858226776,60.0,2875.0,1.0
24029.8377523,146638.890625,146754.046875,147388.484375,146954.140625,146883.609375,146987.140625,147170.859375,147284.953125,0.504638671875,0.790771484375,0.344970703125,-1.8615721464157104,-0.2136230319738388,0.4577636420726776,60.0,2876.0,1.0
24029.851501,149591.296875,149706.984375,150342.671875,149908.0625,149837.25,149941.953125,150125.40625,150239.40625,0.505615234375,0.791015625,0.34619140625,-1.8005369901657104,-0.2746581733226776,0.5187987685203552,60.0,2877.0,1.0
24029.8545814,145104.21875,145219.203125,145852.65625,145418.671875,145348.125,145451.21875,145634.9375,145749.203125,0.50830078125,0.791259765625,0.345458984375,-1.8005369901657104,-0.3967284858226776,0.4272460639476776,60.0,2878.0,1.0
24029.8545892,141604.921875,141719.71875,142351.46875,141917.765625,141847.75,141949.234375,142133.3125,142247.578125,0.50634765625,0.791015625,0.346923828125,-1.7700194120407104,-0.2746581733226776,0.4882812201976776,60.0,2879.0,1.0
24029.8808611,145653.1875,145768.25,146402.234375,145967.984375,145897.53125,146000.703125,146184.53125,146298.796875,0.504150390625,0.790771484375,0.3466796875,-1.8920897245407104,-0.2746581733226776,0.4882812201976776,60.0,2880.0,1.0
24029.8808697,149776.546875,149891.96875,150527.921875,150093.046875,150022.140625,150126.921875,150310.390625,150424.828125,0.507080078125,0.79248046875,0.343994140625,-1.8615721464157104,-0.4272460639476776,0.4272460639476776,60.0,2881.0,1.0
24029.8827422,146269.203125,146384.53125,147018.515625,146584.09375,146513.640625,146617.265625,146800.625,146915.25,0.50927734375,0.792236328125,0.34326171875,-1.8005369901657104,-0.2441406100988388,0.3356933295726776,60.0,2882.0,1.0
24029.898286,141864.5625,141979.09375,142610.75,142177.578125,142107.125,142209.140625,142392.953125,142507.21875,0.509765625,0.792724609375,0.345458984375,-1.8005369901657104,-0.1220703050494194,0.3662109076976776,60.0,2883.0,1.0
24029.8982942,144683.5625,144798.71875,145431.71875,144998.015625,144927.28125,145030.46875,145213.921875,145328.453125,0.507080078125,0.7939453125,0.34228515625,-1.8310545682907104,-0.2746581733226776,0.4882812201976776,60.0,2884.0,1.0
24029.8982972,149699.296875,149814.90625,150450.765625,150015.796875,149944.625,150049.859375,150232.96875,150347.578125,0.508056640625,0.79248046875,0.34423828125,-1.7700194120407104,-0.2441406100988388,0.4272460639476776,60.0,2885.0,1.0
24029.8982995,147356.125,147471.8125,148106.15625,147671.90625,147600.828125,147704.890625,147888.453125,148002.984375,0.50732421875,0.790771484375,0.34716796875,-1.8005369901657104,-0.3356933295726776,0.4882812201976776,60.0,2886.0,1.0
24029.9008616,142247.671875,142362.46875,142994.125,142560.953125,142490.671875,142592.25,142776.515625,142890.78125,0.50732421875,0.790771484375,0.3447265625,-1.8615721464157104,-0.2746581733226776,0.4882812201976776,60.0,2887.0,1.0
24029.9008704,143784.21875,143898.578125,144531.65625,144097.765625,144027.671875,144129.78125,144313.953125,144427.953125,0.50732421875,0.791259765625,0.345458984375,-1.8920897245407104,-0.2746581733226776,0.4882812201976776,60.0,2888.0,1.0
24029.9076895,149360.890625,149476.21875,150112.0,149677.125,149606.046875,149710.921875,149894.65625,150008.90625,0.5068359375,0.791015625,0.344970703125,-1.8615721464157104,-0.3356933295726776,0.5187987685203552,60.0,2889.0,1.0
24029.9076971,148347.015625,148462.53125,149097.765625,148662.890625,148592.265625,148696.6875,148880.421875,148994.59375,0.506591796875,0.792724609375,0.345947265625,-1.7395018339157104,-0.3662109076976776,0.4882812201976776,60.0,2890.0,1.0
24029.9077008,142890.78125,143005.125,143638.03125,143203.703125,143133.78125,143235.96875,143419.890625,143534.0625,0.506591796875,0.790771484375,0.34619140625,-1.7395018339157104,-0.3051757514476776,0.3967284858226776,60.0,2891.0,1.0
24029.9102477,143025.421875,143139.953125,143772.59375,143338.25,143268.078125,143370.09375,143554.4375,143668.53125,0.507568359375,0.79150390625,0.346923828125,-1.7089842557907104,-0.2746581733226776,0.4272460639476776,60.0,2892.0,1.0
24029.9127502,148782.34375,148897.765625,149533.359375,149098.03125,149027.046875,149131.734375,149315.375,149430.0,0.508056640625,0.78955078125,0.343017578125,-1.8310545682907104,-0.1220703050494194,0.3967284858226776,60.0,2893.0,1.0
24029.9152497,149179.84375,149295.4375,149930.953125,149495.8125,149424.90625,149529.953125,149713.421875,149827.6875,0.506591796875,0.791748046875,0.34521484375,-1.8310545682907104,-0.1525878757238388,0.3356933295726776,60.0,2894.0,1.0
24029.9177586,143721.640625,143836.171875,144468.890625,144034.921875,143964.546875,144067.1875,144251.109375,144365.28125,0.506591796875,0.79296875,0.34619140625,-1.7700194120407104,-0.2136230319738388,0.2746581733226776,60.0,2895.0,1.0
24029.9214997,142495.859375,142610.3125,143242.40625,142808.609375,142738.609375,142840.53125,143024.703125,143138.703125,0.50537109375,0.79052734375,0.3466796875,-1.8005369901657104,-0.2441406100988388,0.3662109076976776,60.0,2896.0,1.0
24029.9302496,148008.15625,148123.59375,148758.5625,148323.59375,148253.3125,148357.65625,148541.390625,148655.46875,0.50634765625,0.7919921875,0.346435546875,-1.7700194120407104,-0.2441406100988388,0.3051757514476776,60.0,2897.0,1.0
24029.9345769,149811.59375,149927.109375,150562.96875,150127.90625,150057.015625,150161.984375,150345.625,150460.15625,0.504638671875,0.79248046875,0.345458984375,-1.7395018339157104,-0.2441406100988388,0.3967284858226776,60.0,2898.0,1.0
24029.9345847,144720.3125,144835.109375,145468.46875,145034.3125,144963.765625,145066.671875,145250.9375,145364.75,0.503173828125,0.791259765625,0.34326171875,-1.7700194120407104,-0.2136230319738388,0.3051757514476776,60.0,2899.0,1.0
24029.9377552,142214.765625,142329.125,142961.40625,142527.875,142457.328125,142558.984375,142743.703125,142857.515625,0.506591796875,0.790771484375,0.3447265625,-1.8920897245407104,-0.3356933295726776,0.3662109076976776,60.0,2900.0,1.0
24029.9520789,147091.65625,147207.171875,147841.953125,147407.171875,147336.265625,147440.421875,147624.34375,147738.421875,0.506103515625,0.7919921875,0.343994140625,-1.8615721464157104,-0.3051757514476776,0.3967284858226776,60.0,2901.0,1.0
24029.9520869,150206.046875,150321.921875,150958.234375,150523.0,150451.921875,150556.984375,150741.0625,150854.703125,0.50439453125,0.792724609375,0.346923828125,-1.8005369901657104,-0.3356933295726776,0.4272460639476776,60.0,2902.0,1.0
24029.9545797,145825.921875,145941.25,146575.140625,146141.171875,146070.265625,146173.890625,146357.796875,146471.609375,0.505126953125,0.791259765625,0.34521484375,-1.8615721464157104,-0.2136230319738388,0.4272460639476776,60.0,2903.0,1.0
24029.9545883,142206.359375,142320.984375,142953.09375,142519.296875,142449.1875,142551.03125,142735.46875,142848.9375,0.505859375,0.79150390625,0.347412109375,-1.8310545682907104,-0.2136230319738388,0.4577636420726776,60.0,2904.0,1.0
24029.9564982,146107.640625,146222.703125,146856.875,146422.171875,146351.8125,146455.25,146638.984375,146753.15625,0.505859375,0.79150390625,0.34521484375,-1.7395018339157104,-0.1831054538488388,0.3662109076976776,60.0,2905.0,1.0
24029.9627441,150352.40625,150467.5625,151104.328125,150668.828125,150597.828125,150703.25,150886.4375,151000.96875,0.505859375,0.79443359375,0.343994140625,-1.8005369901657104,-0.2746581733226776,0.4577636420726776,60.0,2906.0,1.0
24029.9720784,146970.0625,147085.21875,147719.921875,147284.859375,147214.5,147318.296875,147501.9375,147616.296875,0.505859375,0.7939453125,0.34423828125,-1.8310545682907104,-0.3356933295726776,0.4272460639476776,60.0,2907.0,1.0
24029.972087,142450.359375,142565.15625,143197.265625,142763.1875,142693.0,142794.75,142979.015625,143093.109375,0.50634765625,0.791015625,0.34619140625,-1.7700194120407104,-0.3051757514476776,0.4577636420726776,60.0,2908.0,1.0
24029.9739984,145132.03125,145246.921875,145880.8125,145446.46875,145375.578125,145478.65625,145662.65625,145776.828125,0.505126953125,0.790283203125,0.347900390625,-1.8615721464157104,-0.2746581733226776,0.4577636420726776,60.0,2909.0,1.0
24029.9780113,150246.203125,150361.265625,150997.84375,150562.78125,150491.359375,150597.125,150780.21875,150894.125,0.505615234375,0.790283203125,0.3466796875,-1.8920897245407104,-0.3051757514476776,0.3967284858226776,60.0,2910.0,1.0
24029.9840016,148060.640625,148175.890625,148811.3125,148376.515625,148305.890625,148410.046875,148593.328125,148707.5,0.50390625,0.7919921875,0.346435546875,-1.8310545682907104,-0.2136230319738388,0.3662109076976776,60.0,2911.0,1.0
24029.9908595,142893.28125,143007.71875,143640.09375,143206.65625,143136.46875,143238.296875,143422.03125,143536.46875,0.504638671875,0.790283203125,0.345458984375,-1.8615721464157104,-0.1525878757238388,0.4577636420726776,60.0,2912.0,1.0
24029.9908677,144252.4375,144367.0625,144999.890625,144566.078125,144495.90625,144598.1875,144782.359375,144896.53125,0.507080078125,0.791748046875,0.347900390625,-1.8310545682907104,-0.2746581733226776,0.4882812201976776,60.0,2913.0,1.0
24029.9932979,149886.25,150001.21875,150637.265625,150202.296875,150131.21875,150236.625,150419.921875,150534.171875,0.505615234375,0.791259765625,0.345947265625,-1.8920897245407104,-0.2746581733226776,0.4272460639476776,60.0,2914.0,1.0
24029.9933056,149044.921875,149159.640625,149795.5,149360.71875,149289.8125,149394.859375,149577.96875,149692.234375,0.5048828125,0.79150390625,0.3466796875,-1.8005369901657104,-0.2441406100988388,0.3662109076976776,60.0,2915.0,1.0
24030.0039978,143561.953125,143676.21875,144309.390625,143875.328125,143804.875,143907.421875,144091.328125,144205.5,0.506103515625,0.792236328125,0.346923828125,-1.8615721464157104,-0.0915527269244194,0.4577636420726776,60.0,2916.0,1.0
24030.0064979,143530.921875,143645.453125,144278.375,143844.5625,143773.9375,143876.484375,144060.671875,144174.484375,0.505126953125,0.790771484375,0.348876953125,-1.8615721464157104,-0.2441406100988388,0.4272460639476776,60.0,2917.0,1.0
24030.009014,149287.75,149403.09375,150038.953125,149603.890625,149532.90625,149637.6875,149821.609375,149935.515625,0.50537109375,0.790771484375,0.3486328125,-1.8920897245407104,-0.3662109076976776,0.5187987685203552,60.0,2918.0,1.0
24030.0152508,149903.40625,150018.75,150655.140625,150219.828125,150149.109375,150254.0625,150437.53125,150551.4375,0.5048828125,0.7919921875,0.345458984375,-1.8920897245407104,-0.3051757514476776,0.3356933295726776,60.0,2919.0,1.0
24030.019586,144486.421875,144600.953125,145234.671875,144800.0625,144730.234375,144832.96875,145016.609375,145130.6875,0.50634765625,0.79248046875,0.345458984375,-1.8920897245407104,-0.3967284858226776,0.3967284858226776,60.0,2920.0,1.0
24030.0195943,143058.40625,143172.859375,143805.40625,143371.515625,143301.421875,143403.703125,143587.609375,143701.703125,0.505615234375,0.79248046875,0.34423828125,-1.7700194120407104,-0.2136230319738388,0.3051757514476776,60.0,2921.0,1.0
24030.0252455,148495.703125,148611.03125,149246.1875,148811.75,148740.671875,148845.28125,149028.65625,149142.828125,0.50390625,0.791748046875,0.344482421875,-1.7700194120407104,-0.3967284858226776,0.3051757514476776,60.0,2922.0,1.0
24030.0345795,150464.625,150580.046875,151216.625,150781.75,150710.484375,150815.90625,150999.0,151113.265625,0.504150390625,0.792236328125,0.346435546875,-1.8005369901657104,-0.2441406100988388,0.3967284858226776,60.0,2923.0,1.0
24030.0345877,145443.078125,145558.046875,146191.59375,145757.78125,145686.984375,145790.421875,145974.15625,146088.140625,0.50439453125,0.791748046875,0.345947265625,-1.8920897245407104,-0.2441406100988388,0.4882812201976776,60.0,2924.0,1.0
24030.0364986,142790.375,142904.546875,143536.921875,143103.109375,143033.203125,143135.296875,143319.21875,143433.296875,0.50537109375,0.79248046875,0.34619140625,-1.8310545682907104,-0.3662109076976776,0.3967284858226776,60.0,2925.0,1.0
24030.0427477,147568.375,147683.25,148318.3125,147883.53125,147812.8125,147916.96875,148100.78125,148215.140625,0.50634765625,0.79150390625,0.345458984375,-1.8310545682907104,-0.3662109076976776,0.4272460639476776,60.0,2926.0,1.0
24030.0470818,150835.921875,150951.34375,151588.015625,151152.875,151081.609375,151187.296875,151370.578125,151484.9375,0.50537109375,0.79296875,0.345703125,-1.8005369901657104,-0.2136230319738388,0.4272460639476776,60.0,2927.0,1.0
24030.0470903,146562.90625,146678.0625,147312.578125,146877.96875,146807.609375,146910.953125,147094.875,147208.6875,0.505615234375,0.792724609375,0.345458984375,-1.8005369901657104,-0.2136230319738388,0.4577636420726776,60.0,2928.0,1.0
24030.0502474,142803.0625,142917.421875,143550.0625,143116.34375,143046.171875,143148.0,143332.265625,143446.0,0.507080078125,0.79345703125,0.34423828125,-1.8615721464157104,-0.3051757514476776,0.4577636420726776,60.0,2929.0,1.0
24030.0639995,146581.140625,146695.578125,147330.28125,146895.671875,146825.125,146929.109375,147112.65625,147227.015625,0.506103515625,0.791015625,0.34326171875,-1.8920897245407104,-0.2136230319738388,0.3662109076976776,60.0,2930.0,1.0
24030.0670765,150947.421875,151062.75,151699.859375,151264.28125,151193.28125,151298.78125,151482.15625,151596.59375,0.506591796875,0.791748046875,0.3447265625,-1.8310545682907104,-0.0915527269244194,0.4272460639476776,60.0,2931.0,1.0
24030.0670846,147693.1875,147808.78125,148443.65625,148009.0625,147938.328125,148042.3125,148226.046875,148340.484375,0.506103515625,0.79248046875,0.34619140625,-1.8615721464157104,-0.2136230319738388,0.3967284858226776,60.0,2932.0,1.0
24030.0689965,143054.75,143169.375,143802.09375,143368.203125,143297.9375,143399.953125,143584.125,143698.484375,0.50634765625,0.793212890625,0.34423828125,-1.9226073026657104,-0.3051757514476776,0.4882812201976776,60.0,2933.0,1.0
24030.0715072,145603.109375,145718.0,146352.4375,145917.828125,145847.375,145950.546875,146134.734375,146248.453125,0.508544921875,0.790771484375,0.347412109375,-1.8920897245407104,-0.3662109076976776,0.5187987685203552,60.0,2934.0,1.0
24030.0802515,150812.234375,150927.5625,151564.421875,151129.1875,151057.921875,151163.609375,151346.890625,151460.703125,0.5078125,0.78955078125,0.34912109375,-1.8005369901657104,-0.2136230319738388,0.3356933295726776,60.0,2935.0,1.0
24030.084574,148814.25,148929.328125,149565.0,149129.953125,149059.234375,149164.1875,149347.5625,149461.46875,0.505615234375,0.789306640625,0.347900390625,-1.9226073026657104,-0.2746581733226776,0.3967284858226776,60.0,2936.0,1.0
24030.084582,143604.421875,143718.765625,144352.125,143917.796875,143847.875,143950.421875,144134.421875,144248.234375,0.5068359375,0.788818359375,0.345458984375,-1.8920897245407104,-0.2746581733226776,0.3051757514476776,60.0,2937.0,1.0
24030.0902459,144763.671875,144878.46875,145512.1875,145077.9375,145007.671875,145110.296875,145294.390625,145408.75,0.50732421875,0.789306640625,0.3427734375,-1.8615721464157104,-0.2441406100988388,0.4272460639476776,60.0,2938.0,1.0
24030.1045779,150415.625,150530.78125,151167.453125,150732.390625,150661.21875,150766.71875,150949.921875,151064.265625,0.5078125,0.790771484375,0.343994140625,-1.8615721464157104,-0.2136230319738388,0.3967284858226776,60.0,2939.0,1.0
24030.1045864,149756.609375,149872.03125,150508.15625,150073.109375,150002.03125,150107.34375,150290.71875,150405.078125,0.509033203125,0.7900390625,0.34619140625,-1.8920897245407104,-0.2746581733226776,0.3662109076976776,60.0,2940.0,1.0
24030.1064906,144287.9375,144402.734375,145036.09375,144601.9375,144531.390625,144634.21875,144818.484375,144932.46875,0.506591796875,0.78955078125,0.347412109375,-2.014159917831421,-0.2441406100988388,0.3356933295726776,60.0,2941.0,1.0
24030.1089965,144057.984375,144172.6875,144805.78125,144371.625,144301.625,144403.90625,144588.25,144702.25,0.505126953125,0.7919921875,0.345947265625,-1.9531248807907104,-0.2441406100988388,0.3967284858226776,60.0,2942.0,1.0
24030.1114955,149780.921875,149895.90625,150532.125,150096.984375,150026.34375,150131.046875,150314.859375,150428.953125,0.505126953125,0.79150390625,0.34375,-1.8310545682907104,-0.1831054538488388,0.3967284858226776,60.0,2943.0,1.0
24030.1140052,150537.671875,150652.734375,151289.84375,150854.078125,150782.90625,150888.671875,151072.140625,151186.3125,0.505859375,0.791748046875,0.345703125,-1.8920897245407104,-0.1525878757238388,0.3356933295726776,60.0,2944.0,1.0
24030.1227479,145139.1875,145254.0625,145888.328125,145453.625,145382.90625,145486.53125,145670.4375,145784.34375,0.50537109375,0.79248046875,0.34716796875,-1.9531248807907104,-0.2441406100988388,0.3662109076976776,60.0,2945.0,1.0
24030.1258619,143579.75,143694.546875,144327.640625,143893.390625,143823.015625,143925.578125,144109.84375,144223.65625,0.5048828125,0.79248046875,0.34765625,-2.075195074081421,-0.2136230319738388,0.3967284858226776,60.0,2946.0,1.0
24030.1258702,148964.375,149079.53125,149715.296875,149280.328125,149209.34375,149314.21875,149497.953125,149611.9375,0.503662109375,0.792724609375,0.347412109375,-1.9531248807907104,-0.2746581733226776,0.4577636420726776,60.0,2947.0,1.0
24030.1280089,151104.6875,151219.921875,151856.953125,151421.625,151350.203125,151456.140625,151639.703125,151753.875,0.505615234375,0.791015625,0.343994140625,-1.8920897245407104,-0.2136230319738388,0.4577636420726776,60.0,2948.0,1.0
24030.1415395,146165.125,146279.75,146914.09375,146479.75,146409.03125,146512.65625,146696.828125,146810.90625,0.50537109375,0.79248046875,0.341552734375,-1.8615721464157104,-0.3051757514476776,0.4577636420726776,60.0,2949.0,1.0
24030.1670809,143353.546875,143468.078125,144101.171875,143667.0,143596.90625,143699.015625,143883.453125,143997.640625,0.5068359375,0.791259765625,0.3447265625,-1.8005369901657104,-0.2441406100988388,0.4577636420726776,60.0,2950.0,1.0
24030.1670897,148001.28125,148116.171875,148752.03125,148316.703125,148245.984375,148350.140625,148533.96875,148648.578125,0.50634765625,0.791748046875,0.3466796875,-1.8615721464157104,-0.2746581733226776,0.4272460639476776,60.0,2951.0,1.0
24030.1689978,151449.078125,151564.421875,152201.796875,151765.84375,151694.859375,151800.359375,151983.90625,152098.4375,0.50634765625,0.792236328125,0.344970703125,-1.9226073026657104,-0.2441406100988388,0.4577636420726776,60.0,2952.0,1.0
24030.1715027,147289.859375,147405.296875,148040.171875,147605.03125,147534.65625,147638.90625,147822.90625,147936.71875,0.50634765625,0.79150390625,0.340576171875,-1.8310545682907104,-0.3051757514476776,0.3967284858226776,60.0,2953.0,1.0
24030.1740018,143397.984375,143513.046875,144145.328125,143711.265625,143641.25,143743.71875,143927.890625,144042.0625,0.506591796875,0.791259765625,0.34423828125,-1.8310545682907104,-0.3051757514476776,0.4882812201976776,60.0,2954.0,1.0
24030.1764986,147022.359375,147137.34375,147771.765625,147337.609375,147266.984375,147370.6875,147554.515625,147668.953125,0.504638671875,0.790283203125,0.344482421875,-1.8920897245407104,-0.3051757514476776,0.4882812201976776,60.0,2955.0,1.0
24030.1789927,151515.421875,151630.671875,152267.59375,151832.640625,151761.015625,151867.0625,152050.515625,152164.328125,0.50537109375,0.791015625,0.34326171875,-1.7700194120407104,-0.2746581733226776,0.5493163466453552,60.0,2956.0,1.0
24030.1814959,148415.40625,148530.390625,149166.078125,148730.921875,148660.03125,148765.0,148948.1875,149062.359375,0.50439453125,0.792236328125,0.34423828125,-1.8310545682907104,-0.1525878757238388,0.5493163466453552,60.0,2957.0,1.0
24030.1840057,143688.375,143803.171875,144435.90625,144002.28125,143931.46875,144034.203125,144218.203125,144332.375,0.506591796875,0.790771484375,0.3447265625,-1.8005369901657104,-0.2136230319738388,0.4577636420726776,60.0,2958.0,1.0
24030.1864989,146067.140625,146182.65625,146816.640625,146382.296875,146311.484375,146415.015625,146599.375,146713.546875,0.507568359375,0.791748046875,0.34423828125,-1.8005369901657104,-0.1220703050494194,0.3662109076976776,60.0,2959.0,1.0
24030.1889994,151345.8125,151461.953125,152099.15625,151663.484375,151592.125,151697.984375,151881.453125,151995.71875,0.5078125,0.78955078125,0.345947265625,-1.8310545682907104,-0.2441406100988388,0.4577636420726776,60.0,2960.0,1.0
24030.1920852,149487.484375,149603.265625,150239.578125,149804.609375,149733.359375,149838.234375,150021.875,150136.140625,0.50634765625,0.7900390625,0.345458984375,-1.8310545682907104,-0.2441406100988388,0.5187987685203552,60.0,2961.0,1.0
24030.1920933,144202.546875,144317.625,144950.796875,144516.8125,144446.1875,144549.09375,144733.359375,144847.171875,0.50732421875,0.78857421875,0.347412109375,-1.8005369901657104,-0.2746581733226776,0.4272460639476776,60.0,2962.0,1.0
24030.1940058,145212.859375,145327.390625,145961.28125,145526.671875,145456.3125,145559.3125,145743.65625,145857.75,0.505615234375,0.790771484375,0.34716796875,-1.7700194120407104,-0.2441406100988388,0.3356933295726776,60.0,2963.0,1.0
24030.1964951,150908.875,151023.6875,151660.703125,151225.390625,151154.125,151259.625,151443.453125,151557.625,0.5048828125,0.791015625,0.347412109375,-1.8615721464157104,-0.3356933295726776,0.3356933295726776,60.0,2964.0,1.0
24030.1989656,150433.234375,150548.75,151185.421875,150749.828125,150678.921875,150783.984375,150967.890625,151081.96875,0.50439453125,0.792724609375,0.347412109375,-1.8310545682907104,-0.3356933295726776,0.2746581733226776,60.0,2965.0,1.0
24030.2083398,144932.109375,145047.09375,145681.25,145246.46875,145176.015625,145279.015625,145463.1875,145577.28125,0.505859375,0.79296875,0.34521484375,-1.9226073026657104,-0.3051757514476776,0.3662109076976776,60.0,2966.0,1.0
24030.2083477,144545.078125,144659.6875,145293.765625,144859.515625,144788.703125,144891.703125,145075.703125,145189.96875,0.506103515625,0.790283203125,0.34716796875,-1.7700194120407104,-0.2136230319738388,0.3967284858226776,60.0,2967.0,1.0
24030.2102488,150260.953125,150375.921875,151012.78125,150577.71875,150506.46875,150611.78125,150795.25,150909.59375,0.505859375,0.791259765625,0.344482421875,-1.9226073026657104,-0.2746581733226776,0.3967284858226776,60.0,2968.0,1.0
24030.2127395,151199.1875,151314.796875,151951.546875,151516.3125,151444.96875,151550.734375,151734.46875,151848.734375,0.5048828125,0.790771484375,0.343505859375,-1.8310545682907104,-0.2136230319738388,0.3662109076976776,60.0,2969.0,1.0
24030.2215036,145840.046875,145955.203125,146589.546875,146154.84375,146084.125,146187.65625,146371.84375,146486.015625,0.5048828125,0.789794921875,0.345703125,-1.8310545682907104,-0.1220703050494194,0.3967284858226776,60.0,2970.0,1.0
24030.2283361,144113.859375,144229.203125,144862.28125,144427.859375,144357.40625,144459.875,144644.140625,144758.3125,0.504638671875,0.79052734375,0.34619140625,-1.8615721464157104,-0.3356933295726776,0.4577636420726776,60.0,2971.0,1.0
24030.2283443,149426.96875,149542.390625,150178.34375,149743.015625,149672.109375,149776.90625,149960.90625,150074.890625,0.50732421875,0.789794921875,0.34375,-1.8920897245407104,-0.2746581733226776,0.3356933295726776,60.0,2972.0,1.0
24030.230252,151738.765625,151854.359375,152491.5625,152055.703125,151984.71875,152090.671875,152273.953125,152388.484375,0.50830078125,0.791015625,0.3466796875,-1.8615721464157104,-0.2746581733226776,0.3967284858226776,60.0,2973.0,1.0
24030.2339968,146880.734375,146995.890625,147630.421875,147195.546875,147124.46875,147228.984375,147412.71875,147527.0625,0.50537109375,0.789306640625,0.343505859375,-1.7700194120407104,-0.1525878757238388,0.3662109076976776,60.0,2974.0,1.0
24030.2409154,143929.78125,144045.015625,144678.375,144243.859375,144173.3125,144275.875,144460.578125,144574.578125,0.508056640625,0.79345703125,0.346435546875,-1.8005369901657104,-0.2441406100988388,0.4272460639476776,60.0,2975.0,1.0
24030.2409238,148474.953125,148590.46875,149226.15625,148790.828125,148719.65625,148824.1875,149008.453125,149122.703125,0.5068359375,0.79248046875,0.3466796875,-1.8005369901657104,-0.1525878757238388,0.4272460639476776,60.0,2976.0,1.0
24030.2515028,152054.359375,152170.0625,152807.53125,152371.9375,152300.234375,152406.546875,152590.359375,152704.625,0.503173828125,0.79150390625,0.345947265625,-1.8615721464157104,-0.2441406100988388,0.4272460639476776,60.0,2977.0,1.0
24030.2614195,148032.75,148148.171875,148783.671875,148348.625,148277.546875,148381.96875,148566.328125,148680.140625,0.505126953125,0.79052734375,0.345458984375,-1.8310545682907104,-0.2136230319738388,0.3051757514476776,60.0,2978.0,1.0
24030.261428,144011.84375,144126.640625,144760.0,144325.75,144255.125,144357.765625,144542.296875,144656.390625,0.505126953125,0.79052734375,0.342529296875,-1.8615721464157104,-0.2441406100988388,0.3967284858226776,60.0,2979.0,1.0
24030.2614323,147481.375,147596.53125,148231.859375,147797.078125,147726.171875,147830.328125,148013.96875,148128.59375,0.50341796875,0.79052734375,0.34619140625,-1.8615721464157104,-0.2441406100988388,0.3662109076976776,60.0,2980.0,1.0
24030.2645656,152088.78125,152203.9375,152841.59375,152406.09375,152334.296875,152440.953125,152623.984375,152738.6875,0.506103515625,0.791748046875,0.348876953125,-1.9531248807907104,-0.2136230319738388,0.4577636420726776,60.0,2981.0,1.0
24030.2645716,149136.921875,149252.078125,149888.125,149452.71875,149381.453125,149486.78125,149670.421875,149784.953125,0.508056640625,0.793212890625,0.345947265625,-1.8310545682907104,-0.2746581733226776,0.4272460639476776,60.0,2982.0,1.0
24030.2664944,144309.21875,144424.28125,145057.828125,144623.390625,144552.578125,144656.03125,144839.84375,144954.109375,0.508056640625,0.790283203125,0.344482421875,-1.7395018339157104,-0.1831054538488388,0.3662109076976776,60.0,2983.0,1.0
24030.2827468,146518.46875,146633.34375,147268.140625,146833.796875,146762.71875,146866.609375,147050.4375,147164.703125,0.507080078125,0.79150390625,0.3447265625,-1.8005369901657104,-0.1831054538488388,0.4272460639476776,60.0,2984.0,1.0
24030.2876635,151876.171875,151991.515625,152629.25,152193.84375,152121.875,152228.0,152411.359375,152525.890625,0.50439453125,0.790771484375,0.34814453125,-1.8005369901657104,-0.2136230319738388,0.4272460639476776,60.0,2985.0,1.0
24030.2876715,150195.0625,150310.125,150946.796875,150511.734375,150440.03125,150545.359375,150729.078125,150843.4375,0.50634765625,0.78955078125,0.347412109375,-1.7700194120407104,-0.2136230319738388,0.5493163466453552,60.0,2986.0,1.0
24030.2876754,144881.953125,144996.84375,145630.65625,145196.40625,145125.59375,145228.765625,145412.953125,145527.125,0.505859375,0.790283203125,0.34716796875,-1.8615721464157104,-0.2441406100988388,0.4882812201976776,60.0,2987.0,1.0
24030.2908612,145701.640625,145816.53125,146450.6875,146016.4375,145945.546875,146049.078125,146233.078125,146347.25,0.503662109375,0.790283203125,0.34619140625,-1.8310545682907104,-0.3051757514476776,0.3967284858226776,60.0,2988.0,1.0
24030.2908696,151425.5625,151540.71875,152177.921875,151742.328125,151671.25,151777.375,151960.578125,152074.75,0.505126953125,0.791015625,0.34423828125,-1.8615721464157104,-0.3051757514476776,0.4272460639476776,60.0,2989.0,1.0
24030.2989933,151119.53125,151235.125,151872.328125,151436.390625,151365.3125,151471.15625,151654.453125,151768.625,0.506591796875,0.7919921875,0.3447265625,-1.8615721464157104,-0.3051757514476776,0.4577636420726776,60.0,2990.0,1.0
24030.3058551,145618.3125,145733.65625,146367.71875,145933.03125,145862.21875,145965.75,146149.921875,146264.015625,0.508056640625,0.792724609375,0.3447265625,-1.8005369901657104,-0.2746581733226776,0.4272460639476776,60.0,2991.0,1.0
24030.3058631,145053.796875,145169.21875,145802.765625,145368.421875,145297.4375,145400.875,145585.328125,145699.3125,0.50634765625,0.79296875,0.343994140625,-1.8005369901657104,-0.2136230319738388,0.4272460639476776,60.0,2992.0,1.0
24030.3152472,150725.234375,150841.109375,151477.6875,151042.1875,150970.3125,151076.703125,151259.984375,151374.609375,0.505615234375,0.79345703125,0.343505859375,-1.8615721464157104,-0.2746581733226776,0.4272460639476776,60.0,2993.0,1.0
24030.3201642,151849.984375,151965.859375,152603.234375,152167.546875,152095.84375,152202.25,152385.34375,152499.796875,0.50537109375,0.79296875,0.345947265625,-1.8310545682907104,-0.3051757514476776,0.3662109076976776,60.0,2994.0,1.0
24030.3201723,146534.28125,146649.4375,147284.59375,146849.8125,146778.90625,146882.625,147066.265625,147180.96875,0.505126953125,0.79052734375,0.344970703125,-1.8005369901657104,-0.1831054538488388,0.3662109076976776,60.0,2995.0,1.0
24030.3201765,144645.203125,144760.359375,145394.171875,144959.828125,144889.296875,144992.46875,145176.015625,145290.734375,0.5068359375,0.78955078125,0.345703125,-1.8615721464157104,-0.2136230319738388,0.4577636420726776,60.0,2996.0,1.0
24030.3227474,149882.9375,149998.453125,150634.765625,150199.796875,150128.265625,150233.59375,150417.328125,150531.671875,0.50830078125,0.790771484375,0.347900390625,-1.9226073026657104,-0.2746581733226776,0.3662109076976776,60.0,2997.0,1.0
24030.3264936,152368.546875,152484.140625,153121.703125,152686.03125,152614.234375,152720.71875,152904.171875,153018.625,0.50732421875,0.791259765625,0.347900390625,-1.8920897245407104,-0.2441406100988388,0.3967284858226776,60.0,2998.0,1.0
24030.3352431,147596.984375,147712.140625,148347.015625,147912.140625,147841.15625,147945.75,148129.484375,148243.75,0.507080078125,0.79150390625,0.34814453125,-1.7700194120407104,-0.2136230319738388,0.4577636420726776,60.0,2999.0,1.0
24030.3551674,144492.859375,144607.75,145241.109375,144806.671875,144736.140625,144839.40625,145023.3125,145137.296875,0.506103515625,0.791015625,0.345947265625,-1.9531248807907104,-0.2136230319738388,0.5187987685203552,60.0,3000.0,1.0
24030.3551757,148917.4375,149033.125,149669.078125,149233.390625,149162.40625,149267.640625,149451.28125,149565.28125,0.506591796875,0.7919921875,0.34619140625,-1.9226073026657104,-0.2136230319738388,0.3967284858226776,60.0,3001.0,1.0
24030.3551799,152634.609375,152750.3125,153388.3125,152952.28125,152880.671875,152987.234375,153170.25,153284.78125,0.505859375,0.793212890625,0.34326171875,-1.9531248807907104,-0.2136230319738388,0.4272460639476776,60.0,3002.0,1.0
24030.3577453,148722.796875,148837.953125,149473.90625,149038.84375,148967.140625,149072.546875,149256.109375,149370.453125,0.505126953125,0.790283203125,0.34423828125,-1.8920897245407104,-0.2441406100988388,0.4577636420726776,60.0,3003.0,1.0
24030.360858,144591.828125,144706.625,145340.171875,144905.65625,144835.203125,144938.375,145122.46875,145236.546875,0.50537109375,0.791015625,0.34765625,-1.8615721464157104,-0.4272460639476776,0.3662109076976776,60.0,3004.0,1.0
24030.3608666,147920.71875,148035.515625,148671.03125,148235.796875,148165.078125,148269.859375,148453.40625,148567.40625,0.505126953125,0.79296875,0.346923828125,-1.8920897245407104,-0.3051757514476776,0.3662109076976776,60.0,3005.0,1.0
24030.3627586,152646.234375,152761.3125,153399.40625,152963.359375,152892.015625,152998.859375,153181.78125,153295.953125,0.505859375,0.793701171875,0.345947265625,-1.8615721464157104,-0.2136230319738388,0.4577636420726776,60.0,3006.0,1.0
24030.3689959,149843.6875,149958.671875,150595.59375,150160.015625,150088.84375,150194.4375,150377.8125,150492.15625,0.50439453125,0.79345703125,0.345947265625,-1.8615721464157104,-0.1220703050494194,0.4577636420726776,60.0,3007.0,1.0
24030.3733189,144947.578125,145062.65625,145696.90625,145261.84375,145191.125,145294.578125,145478.65625,145592.828125,0.5048828125,0.79248046875,0.34765625,-1.9226073026657104,-0.1220703050494194,0.4272460639476776,60.0,3008.0,1.0
24030.3733264,146980.34375,147095.40625,147730.46875,147294.96875,147224.15625,147328.671875,147512.671875,147626.65625,0.505615234375,0.794189453125,0.345703125,-1.9531248807907104,-0.1525878757238388,0.4272460639476776,60.0,3009.0,1.0
24030.3845755,152401.984375,152517.671875,153155.328125,152719.1875,152647.484375,152754.15625,152937.53125,153051.96875,0.504638671875,0.791748046875,0.34521484375,-1.9836424589157104,-0.2746581733226776,0.3967284858226776,60.0,3010.0,1.0
24030.3845841,150897.96875,151014.03125,151650.78125,151214.75,151143.484375,151249.609375,151433.171875,151547.15625,0.505615234375,0.791259765625,0.34521484375,-1.8920897245407104,-0.2746581733226776,0.3356933295726776,60.0,3011.0,1.0
24030.3870728,145544.546875,145659.4375,146293.6875,145858.8125,145788.1875,145891.71875,146075.71875,146189.890625,0.506591796875,0.790771484375,0.345947265625,-1.9226073026657104,-0.2136230319738388,0.4577636420726776,60.0,3012.0,1.0
24030.3870802,146186.859375,146301.65625,146936.078125,146500.84375,146430.578125,146534.28125,146718.015625,146832.453125,0.50537109375,0.7919921875,0.343505859375,-1.8920897245407104,-0.1831054538488388,0.4272460639476776,60.0,3013.0,1.0
24030.395226,151928.296875,152043.90625,152681.5625,152244.984375,152174.078125,152280.203125,152463.40625,152577.75,0.505126953125,0.790771484375,0.34716796875,-1.8310545682907104,-0.1220703050494194,0.3967284858226776,60.0,3014.0,1.0
24030.3977481,151804.390625,151919.984375,152557.546875,152121.328125,152049.984375,152156.109375,152339.484375,152453.5625,0.507080078125,0.79150390625,0.348876953125,-1.8920897245407104,-0.1525878757238388,0.3662109076976776,60.0,3015.0,1.0
24030.4015014,146321.328125,146436.390625,147070.90625,146636.03125,146565.21875,146669.46875,146853.109375,146967.015625,0.505859375,0.792724609375,0.34765625,-1.9226073026657104,-0.1831054538488388,0.3662109076976776,60.0,3016.0,1.0
24030.4058537,145578.34375,145693.421875,146327.21875,145892.796875,145821.984375,145925.96875,146109.421875,146223.515625,0.5068359375,0.79052734375,0.345703125,-1.8615721464157104,-0.1525878757238388,0.3967284858226776,60.0,3017.0,1.0
24030.4058609,151221.1875,151336.421875,151973.359375,151537.6875,151466.15625,151572.734375,151755.5625,151869.921875,0.506103515625,0.79248046875,0.344970703125,-1.8920897245407104,-0.1831054538488388,0.3967284858226776,60.0,3018.0,1.0
24030.4177498,152518.203125,152633.1875,153271.546875,152835.15625,152763.546875,152870.5625,153053.40625,153167.921875,0.505859375,0.794189453125,0.34423828125,-1.8920897245407104,-0.3051757514476776,0.4272460639476776,60.0,3019.0,1.0
24030.4208597,147247.3125,147362.203125,147997.875,147562.46875,147491.5625,147596.078125,147779.375,147893.71875,0.505126953125,0.793701171875,0.34765625,-1.8310545682907104,-0.2441406100988388,0.3967284858226776,60.0,3020.0,1.0
24030.4208682,145195.421875,145310.578125,145944.46875,145509.78125,145439.140625,145542.59375,145726.046875,145840.671875,0.505859375,0.79345703125,0.347900390625,-1.9226073026657104,-0.2746581733226776,0.3662109076976776,60.0,3021.0,1.0
24030.4227525,150343.734375,150458.984375,151095.921875,150660.15625,150589.15625,150694.484375,150877.59375,150992.5625,0.5048828125,0.79248046875,0.346923828125,-1.9226073026657104,-0.3356933295726776,0.3662109076976776,60.0,3022.0,1.0
24030.4314921,153016.296875,153132.171875,153770.625,153334.21875,153262.609375,153369.546875,153552.375,153667.0,0.507080078125,0.79248046875,0.346435546875,-1.8615721464157104,-0.2441406100988388,0.4272460639476776,60.0,3023.0,1.0
24030.435856,148356.9375,148472.546875,149108.21875,148673.078125,148602.0,148706.96875,148890.15625,149004.875,0.506103515625,0.793212890625,0.34765625,-1.8615721464157104,-0.3662109076976776,0.4577636420726776,60.0,3024.0,1.0
24030.435864,145083.484375,145198.8125,145832.265625,145397.921875,145327.390625,145430.828125,145614.734375,145728.828125,0.50732421875,0.791748046875,0.345458984375,-1.8615721464157104,-0.3051757514476776,0.5493163466453552,60.0,3025.0,1.0
24030.4389889,149364.828125,149480.703125,150116.46875,149680.703125,149609.890625,149715.390625,149898.671875,150013.109375,0.508056640625,0.790283203125,0.346435546875,-1.8920897245407104,-0.2441406100988388,0.4882812201976776,60.0,3026.0,1.0
24030.4502312,153225.234375,153341.109375,153979.203125,153542.640625,153471.375,153578.125,153761.140625,153875.765625,0.50439453125,0.789794921875,0.346435546875,-1.9226073026657104,-0.2136230319738388,0.5187987685203552,60.0,3027.0,1.0
24030.4533187,149440.375,149555.796875,150192.015625,149756.15625,149685.53125,149790.484375,149974.21875,150088.03125,0.506591796875,0.790283203125,0.34619140625,-1.8920897245407104,-0.2136230319738388,0.5187987685203552,60.0,3028.0,1.0
24030.4533263,145192.203125,145307.09375,145941.15625,145506.28125,145435.828125,145539.1875,145723.359375,145837.1875,0.506103515625,0.790771484375,0.34375,-1.8920897245407104,-0.4272460639476776,0.4577636420726776,60.0,3029.0,1.0
24030.4589908,148365.703125,148481.125,149116.546875,148681.390625,148610.59375,148715.28125,148898.75,149013.09375,0.506591796875,0.791015625,0.34228515625,-1.8615721464157104,-0.4272460639476776,0.3662109076976776,60.0,3030.0,1.0
24030.4620743,153203.6875,153319.109375,153957.484375,153521.359375,153449.5625,153556.40625,153739.234375,153853.859375,0.50634765625,0.790283203125,0.345458984375,-1.7395018339157104,-0.3662109076976776,0.3356933295726776,60.0,3031.0,1.0
24030.4620827,150558.5,150673.390625,151310.234375,150875.0,150803.296875,150909.421875,151092.53125,151206.703125,0.504638671875,0.789306640625,0.3466796875,-1.7395018339157104,-0.3662109076976776,0.3662109076976776,60.0,3032.0,1.0
24030.472732,145565.390625,145680.453125,146314.171875,145880.015625,145809.375,145912.734375,146096.734375,146210.8125,0.50732421875,0.7919921875,0.34765625,-1.7089842557907104,-0.3967284858226776,0.3662109076976776,60.0,3033.0,1.0
24030.4758563,147432.03125,147547.265625,148182.5,147747.71875,147677.359375,147780.984375,147964.890625,148079.234375,0.505859375,0.79248046875,0.34765625,-1.7700194120407104,-0.2746581733226776,0.3967284858226776,60.0,3034.0,1.0
24030.4758642,152930.46875,153046.515625,153684.4375,153248.484375,153177.140625,153283.625,153466.734375,153581.171875,0.507080078125,0.7939453125,0.349609375,-1.8615721464157104,-0.3051757514476776,0.4577636420726776,60.0,3035.0,1.0
24030.4814946,151590.96875,151707.203125,152344.21875,151908.625,151837.109375,151943.671875,152126.515625,152240.953125,0.50537109375,0.7919921875,0.346923828125,-1.9531248807907104,-0.3662109076976776,0.2746581733226776,60.0,3036.0,1.0
24030.4852325,146166.203125,146281.09375,146916.328125,146480.734375,146410.28125,146514.4375,146697.90625,146811.984375,0.50341796875,0.791259765625,0.348388671875,-1.8920897245407104,-0.2746581733226776,0.3967284858226776,60.0,3037.0,1.0
24030.4889922,146645.25,146760.484375,147394.828125,146959.953125,146889.40625,146993.65625,147176.953125,147291.203125,0.50390625,0.79296875,0.34814453125,-1.9226073026657104,-0.1831054538488388,0.3662109076976776,60.0,3038.0,1.0
24030.4983237,152416.375,152532.15625,153169.625,152733.328125,152662.25,152768.90625,152951.828125,153066.1875,0.50634765625,0.792236328125,0.345947265625,-1.8615721464157104,-0.3356933295726776,0.4272460639476776,60.0,3039.0,1.0
24030.4983323,152500.953125,152617.09375,153254.65625,152818.265625,152746.90625,152853.65625,153036.953125,153150.859375,0.507080078125,0.791259765625,0.346435546875,-1.8920897245407104,-0.3051757514476776,0.3356933295726776,60.0,3040.0,1.0
24030.5002315,147029.953125,147145.828125,147780.0,147344.859375,147274.671875,147378.640625,147562.921875,147676.46875,0.506591796875,0.7919921875,0.346923828125,-1.8920897245407104,-0.2746581733226776,0.3051757514476776,60.0,3041.0,1.0
24030.5095691,146098.875,146214.03125,146848.203125,146413.5,146343.140625,146446.765625,146630.84375,146744.65625,0.5068359375,0.791259765625,0.3447265625,-1.9531248807907104,-0.2746581733226776,0.3967284858226776,60.0,3042.0,1.0
24030.5095772,151692.265625,151807.609375,152444.984375,152009.03125,151937.875,152043.8125,152227.546875,152341.546875,0.507080078125,0.791015625,0.34375,-1.8310545682907104,-0.3356933295726776,0.4577636420726776,60.0,3043.0,1.0
24030.5114948,153160.328125,153275.9375,153914.203125,153477.90625,153406.375,153512.953125,153696.5,153810.9375,0.506591796875,0.79150390625,0.344970703125,-1.8005369901657104,-0.1831054538488388,0.4882812201976776,60.0,3044.0,1.0
24030.5252462,147952.28125,148067.265625,148702.671875,148267.71875,148196.453125,148301.421875,148485.0625,148598.96875,0.505126953125,0.791748046875,0.344482421875,-1.8310545682907104,-0.1831054538488388,0.4882812201976776,60.0,3045.0,1.0
24030.5283211,145736.421875,145851.21875,146485.390625,146051.046875,145980.046875,146083.5,146267.5,146381.484375,0.504638671875,0.79052734375,0.34375,-1.9531248807907104,-0.2746581733226776,0.4577636420726776,60.0,3046.0,1.0
24030.5283295,150792.03125,150907.359375,151544.484375,151108.96875,151037.265625,151143.125,151326.59375,151440.59375,0.505859375,0.791259765625,0.346923828125,-1.8615721464157104,-0.1831054538488388,0.4272460639476776,60.0,3047.0,1.0
24030.530234,153606.921875,153722.703125,154361.15625,153924.765625,153853.046875,153960.078125,154143.09375,154257.53125,0.5068359375,0.790283203125,0.345703125,-1.8920897245407104,-0.1831054538488388,0.4577636420726776,60.0,3048.0,1.0
24030.5327434,149018.109375,149133.890625,149769.484375,149334.0625,149263.171875,149368.046875,149551.78125,149666.03125,0.50634765625,0.791259765625,0.344970703125,-1.8310545682907104,-0.1220703050494194,0.3967284858226776,60.0,3049.0,1.0
24030.5364915,145629.578125,145744.828125,146378.359375,145944.109375,145873.578125,145977.109375,146161.015625,146275.015625,0.5087890625,0.790771484375,0.35107421875,-1.9531248807907104,-0.2441406100988388,0.5187987685203552,60.0,3050.0,1.0
24030.5502443,149803.71875,149919.328125,150555.640625,150120.484375,150048.96875,150154.46875,150338.109375,150452.1875,0.5068359375,0.79052734375,0.349609375,-2.014159917831421,-0.2746581733226776,0.3662109076976776,60.0,3051.0,1.0
24030.5533175,153810.3125,153925.921875,154564.46875,154128.15625,154056.1875,154163.390625,154346.84375,154461.203125,0.508544921875,0.789794921875,0.34619140625,-1.8615721464157104,-0.3051757514476776,0.3967284858226776,60.0,3052.0,1.0
24030.5533253,150154.734375,150270.25,150906.734375,150471.140625,150399.625,150505.390625,150689.125,150803.296875,0.508056640625,0.79052734375,0.343994140625,-1.8005369901657104,-0.2441406100988388,0.3967284858226776,60.0,3053.0,1.0
24030.5595672,145790.515625,145905.578125,146539.65625,146104.953125,146033.96875,146138.03125,146321.859375,146436.125,0.50634765625,0.791015625,0.346435546875,-1.8310545682907104,-0.2136230319738388,0.3356933295726776,60.0,3054.0,1.0
24030.5595757,148798.4375,148913.40625,149549.265625,149114.390625,149042.953125,149148.1875,149332.015625,149445.828125,0.506103515625,0.790283203125,0.344482421875,-1.7700194120407104,-0.3051757514476776,0.2746581733226776,60.0,3055.0,1.0
24030.5683183,153766.234375,153881.578125,154520.125,154084.265625,154012.375,154119.390625,154302.6875,154416.5,0.505859375,0.789794921875,0.3447265625,-1.8005369901657104,-0.2441406100988388,0.2746581733226776,60.0,3056.0,1.0
24030.5683266,151296.1875,151411.703125,152048.640625,151612.6875,151541.53125,151647.921875,151831.203125,151945.203125,0.506591796875,0.789794921875,0.34375,-1.8310545682907104,-0.3051757514476776,0.2746581733226776,60.0,3057.0,1.0
24030.5708543,146224.140625,146339.375,146973.71875,146538.765625,146468.21875,146572.46875,146756.015625,146870.015625,0.507080078125,0.78955078125,0.34521484375,-1.8615721464157104,-0.1831054538488388,0.3662109076976776,60.0,3058.0,1.0
24030.5708624,147893.8125,148009.421875,148644.109375,148209.421875,148138.515625,148243.296875,148426.40625,148540.578125,0.508056640625,0.78955078125,0.3466796875,-1.8310545682907104,-0.3051757514476776,0.3967284858226776,60.0,3059.0,1.0
24030.5839828,153449.921875,153565.796875,154203.984375,153767.765625,153696.0625,153803.34375,153986.0,154100.625,0.509033203125,0.790771484375,0.3466796875,-1.9226073026657104,-0.2441406100988388,0.4272460639476776,60.0,3060.0,1.0
24030.5914124,152279.578125,152395.453125,153033.109375,152596.890625,152525.453125,152632.296875,152815.390625,152929.75,0.50732421875,0.79052734375,0.34326171875,-1.9531248807907104,-0.2746581733226776,0.3662109076976776,60.0,3061.0,1.0
24030.5914208,146822.625,146938.140625,147572.65625,147137.609375,147066.96875,147171.3125,147354.953125,147469.03125,0.505615234375,0.791748046875,0.3447265625,-1.9531248807907104,-0.1831054538488388,0.4272460639476776,60.0,3062.0,1.0
24030.5914246,147126.4375,147242.03125,147876.5625,147441.59375,147370.6875,147475.390625,147658.578125,147772.75,0.505615234375,0.791015625,0.346923828125,-1.8615721464157104,-0.2136230319738388,0.3356933295726776,60.0,3063.0,1.0
24030.5946631,152903.546875,153019.421875,153656.8125,153220.953125,153149.421875,153256.0,153439.09375,153553.625,0.506591796875,0.791259765625,0.34765625,-1.8615721464157104,-0.2136230319738388,0.4882812201976776,60.0,3064.0,1.0
24030.5946705,153138.609375,153254.5625,153891.953125,153456.171875,153384.734375,153491.5,153674.328125,153788.6875,0.50830078125,0.79052734375,0.344970703125,-1.9226073026657104,-0.3051757514476776,0.5187987685203552,60.0,3065.0,1.0
24030.6027309,147644.359375,147759.703125,148394.484375,147959.4375,147888.984375,147993.40625,148176.96875,148291.046875,0.508056640625,0.78955078125,0.34765625,-1.8615721464157104,-0.2746581733226776,0.4272460639476776,60.0,3066.0,1.0
24030.6095676,146576.3125,146691.734375,147325.984375,146890.84375,146820.484375,146924.734375,147108.28125,147222.359375,0.506103515625,0.79296875,0.3466796875,-1.9531248807907104,-0.2136230319738388,0.4577636420726776,60.0,3067.0,1.0
24030.6095753,152156.28125,152271.796875,152909.453125,152473.59375,152402.421875,152508.46875,152691.5625,152806.1875,0.507080078125,0.78955078125,0.345703125,-1.9836424589157104,-0.2746581733226776,0.4882812201976776,60.0,3068.0,1.0
24030.615229,153802.625,153918.140625,154556.59375,154120.46875,154048.953125,154155.78125,154338.625,154452.96875,0.507568359375,0.79150390625,0.346923828125,-1.8615721464157104,-0.2441406100988388,0.4272460639476776,60.0,3069.0,1.0
24030.6245352,148662.4375,148777.78125,149413.375,148978.765625,148907.59375,149012.203125,149195.75,149309.578125,0.5068359375,0.790771484375,0.345703125,-1.8615721464157104,-0.3051757514476776,0.4577636420726776,60.0,3070.0,1.0
24030.6245435,146282.34375,146397.5,147031.921875,146597.59375,146526.78125,146630.671875,146814.40625,146928.578125,0.507568359375,0.791015625,0.34619140625,-1.8920897245407104,-0.3967284858226776,0.4577636420726776,60.0,3071.0,1.0
24030.6269202,151230.03125,151345.546875,151982.296875,151547.0625,151475.359375,151581.765625,151764.6875,151879.484375,0.506103515625,0.791015625,0.344970703125,-1.8920897245407104,-0.2746581733226776,0.3967284858226776,60.0,3072.0,1.0
24030.6269268,154243.046875,154358.65625,154997.015625,154561.25,154488.828125,154596.46875,154779.9375,154894.015625,0.507080078125,0.792724609375,0.34619140625,-1.9226073026657104,-0.2746581733226776,0.3662109076976776,60.0,3073.0,1.0
24030.6439952,149761.25,149876.59375,150512.90625,150077.84375,150006.046875,150111.546875,150295.28125,150409.28125,0.5068359375,0.7919921875,0.345458984375,-1.8005369901657104,-0.1525878757238388,0.3051757514476776,60.0,3074.0,1.0
24030.6476685,146222.96875,146338.125,146972.46875,146538.21875,146466.875,146570.765625,146754.765625,146868.578125,0.506103515625,0.79150390625,0.345947265625,-1.8310545682907104,-0.3051757514476776,0.3967284858226776,60.0,3075.0,1.0
