Time,FZ,C3,CZ,C4,PZ,PO7,OZ,PO8,AccX,AccY,AccZ,Gyro1,Gyro2,Gyro3,Battery,Counter,Validation
1681.173657,97160.265625,77956.453125,-220938.15625,-222468.890625,-109655.15625,-230357.265625,-221712.0625,-339832.1875,-0.077880859375,1.010009765625,-0.010498046875,-1.9531248807907104,-0.2746581733226776,0.7019042372703552,66.66667175292969,44084.0,1.0
1681.1736663,93959.2265625,77435.921875,-221501.0625,-222292.40625,-109445.765625,-230097.0,-221173.734375,-339603.84375,-0.07763671875,1.009521484375,-0.0107421875,-2.014159917831421,-0.3051757514476776,0.6408690810203552,66.66667175292969,44085.0,1.0
1681.1756044,82135.0625,79668.859375,-222408.09375,-221838.296875,-107986.2890625,-229473.296875,-219491.546875,-338779.5,-0.076904296875,1.010498046875,-0.008056640625,-1.9836424589157104,-0.2746581733226776,0.5493163466453552,66.66667175292969,44086.0,1.0
1681.1780407,83796.6953125,80576.7890625,-221971.25,-221963.921875,-107923.8828125,-229661.859375,-219810.734375,-338919.96875,-0.07666015625,1.010986328125,-0.008056640625,-1.9836424589157104,-0.3051757514476776,0.6103515028953552,66.66667175292969,44087.0,1.0
1681.1806105,96128.953125,78468.75,-221010.578125,-222446.53125,-109319.796875,-230323.203125,-221565.25,-339788.46875,-0.078125,1.010498046875,-0.009033203125,-1.9531248807907104,-0.1220703050494194,0.6713866591453552,66.66667175292969,44088.0,1.0
1681.1836563,95829.171875,77430.109375,-221360.25,-222379.21875,-109441.8359375,-230211.890625,-221428.375,-339758.96875,-0.077880859375,1.00732421875,-0.010009765625,-2.044677495956421,-0.1525878757238388,0.7019042372703552,66.66667175292969,44089.0,1.0
1681.1836653,83841.9375,79287.9921875,-222346.765625,-221911.265625,-107972.875,-229562.96875,-219723.375,-338928.625,-0.07763671875,1.008056640625,-0.008056640625,-2.105712652206421,-0.2136230319738388,0.6408690810203552,66.66667175292969,44090.0,1.0
1681.1856029,82144.9921875,80408.4375,-222153.640625,-221911.796875,-107590.75,-229582.015625,-219599.375,-338849.4375,-0.0791015625,1.008056640625,-0.007568359375,-2.014159917831421,-0.3662109076976776,0.7019042372703552,66.66667175292969,44091.0,1.0
1681.1880324,94172.4609375,78544.3046875,-221129.484375,-222401.828125,-108985.6796875,-230257.9375,-221345.84375,-339710.3125,-0.077392578125,1.008544921875,-0.011962890625,-1.9531248807907104,-0.2136230319738388,0.6408690810203552,66.66667175292969,44092.0,1.0
1681.1911201,96770.6328125,76919.8671875,-221233.546875,-222451.453125,-109529.09375,-230306.21875,-221632.484375,-339885.375,-0.077880859375,1.009765625,-0.01171875,-2.014159917831421,-0.1525878757238388,0.6408690810203552,66.66667175292969,44093.0,1.0
1681.1911284,85197.5234375,78452.9296875,-222231.875,-222001.203125,-108568.7734375,-229684.84375,-220012.34375,-339103.15625,-0.07861328125,1.0078125,-0.011474609375,-1.9836424589157104,-0.2441406100988388,0.6408690810203552,66.66667175292969,44094.0,1.0
1681.1930341,80692.21875,80381.6171875,-222301.515625,-221879.703125,-107925.5859375,-229537.3125,-219450.78125,-338811.6875,-0.079833984375,1.01025390625,-0.010498046875,-1.9836424589157104,-0.2441406100988388,0.6408690810203552,66.66667175292969,44095.0,1.0
1681.196783,91809.703125,79040.328125,-221281.5625,-222344.796875,-109080.0078125,-230176.578125,-221075.484375,-339608.5,-0.076904296875,1.0078125,-0.01220703125,-1.9531248807907104,-0.2136230319738388,0.7934569716453552,66.66667175292969,44096.0,1.0
1681.2061157,97395.40625,77089.6484375,-221131.1875,-222514.3125,-109879.0390625,-230390.4375,-221786.890625,-339988.5625,-0.07861328125,1.008544921875,-0.013916015625,-2.044677495956421,-0.4272460639476776,0.7324218153953552,66.66667175292969,44097.0,1.0
1681.2061242,87303.7734375,78131.1484375,-222095.171875,-222102.5,-108987.203125,-229818.046875,-220338.046875,-339296.71875,-0.077880859375,1.0078125,-0.01171875,-2.044677495956421,-0.2746581733226776,0.7019042372703552,66.66667175292969,44098.0,1.0
1681.2086537,80080.7578125,80365.078125,-222426.59375,-221862.0,-108059.421875,-229506.5625,-219368.171875,-338807.03125,-0.076904296875,1.00732421875,-0.009521484375,-2.075195074081421,-0.3051757514476776,0.7934569716453552,66.66667175292969,44099.0,1.0
1681.2086598,89516.953125,79542.53125,-221475.84375,-222273.53125,-108986.578125,-230074.296875,-220769.984375,-339489.75,-0.0771484375,1.00732421875,-0.01025390625,-2.014159917831421,-0.1831054538488388,0.6713866591453552,66.66667175292969,44100.0,1.0
1681.2192841,97773.1484375,77367.3515625,-221066.359375,-222556.421875,-110038.0,-230447.125,-221873.265625,-340056.59375,-0.0791015625,1.00732421875,-0.010498046875,-1.8920897245407104,-0.3051757514476776,0.7324218153953552,66.66667175292969,44101.0,1.0
1681.2236521,89693.3515625,77916.6640625,-221936.46875,-222204.0625,-109230.2109375,-229952.4375,-220670.375,-339491.375,-0.078369140625,1.00732421875,-0.014404296875,-1.9531248807907104,-0.2441406100988388,0.7324218153953552,66.66667175292969,44102.0,1.0
1681.2236606,80276.296875,80235.1640625,-222513.140625,-221869.78125,-107980.921875,-229506.46875,-219366.203125,-338845.21875,-0.077392578125,1.0087890625,-0.011474609375,-2.014159917831421,-0.3662109076976776,0.7324218153953552,66.66667175292969,44103.0,1.0
1681.2291337,87461.3046875,79985.71875,-221689.078125,-222202.453125,-108612.8515625,-229969.234375,-220460.0,-339371.5625,-0.07861328125,1.008056640625,-0.00927734375,-2.014159917831421,-0.3051757514476776,0.6713866591453552,66.66667175292969,44104.0,1.0
1681.2373649,97820.5390625,77667.3984375,-221043.46875,-222580.109375,-109876.796875,-230476.984375,-221886.140625,-340090.40625,-0.076171875,1.0078125,-0.01025390625,-2.075195074081421,-0.3051757514476776,0.6408690810203552,66.66667175292969,44105.0,1.0
1681.2373729,92004.078125,77650.3203125,-221774.109375,-222310.8125,-109377.015625,-230092.625,-220996.53125,-339685.75,-0.076904296875,1.009765625,-0.01171875,-2.044677495956421,-0.3662109076976776,0.7019042372703552,66.66667175292969,44106.0,1.0
1681.2392943,80949.796875,79959.2578125,-222537.90625,-221901.953125,-108012.21875,-229539.546875,-219448.640625,-338922.375,-0.0771484375,1.009521484375,-0.012939453125,-1.8615721464157104,-0.2746581733226776,0.6713866591453552,66.66667175292969,44107.0,1.0
1681.2430368,85465.7421875,80288.09375,-221889.4375,-222135.84375,-108318.5234375,-229871.15625,-220170.6875,-339262.125,-0.078125,1.01025390625,-0.009033203125,-1.9836424589157104,-0.2441406100988388,0.7019042372703552,66.66667175292969,44108.0,1.0
1681.2573583,97226.4296875,77998.828125,-221053.125,-222579.84375,-109696.734375,-230475.640625,-221818.1875,-340082.78125,-0.07763671875,1.009765625,-0.010498046875,-1.9226073026657104,-0.2441406100988388,0.6713866591453552,66.66667175292969,44109.0,1.0
1681.2573651,94112.3828125,77458.8984375,-221610.765625,-222407.28125,-109496.375,-230221.1875,-221293.09375,-339861.34375,-0.077880859375,1.0087890625,-0.009765625,-2.014159917831421,-0.2136230319738388,0.7629393935203552,66.66667175292969,44110.0,1.0
1681.2592809,82264.171875,79679.4140625,-222524.328125,-221954.359375,-108039.6640625,-229598.03125,-219610.734375,-339038.34375,-0.07666015625,1.01025390625,-0.009765625,-1.9836424589157104,-0.2441406100988388,0.6713866591453552,66.66667175292969,44111.0,1.0
1681.2617965,83824.765625,80607.90625,-222092.84375,-222073.078125,-107964.921875,-229778.71875,-219912.390625,-339168.875,-0.0751953125,1.007080078125,-0.011962890625,-2.014159917831421,-0.1525878757238388,0.7019042372703552,66.66667175292969,44112.0,1.0
1681.2655321,96155.2421875,78511.9375,-221128.859375,-222554.71875,-109357.96875,-230439.515625,-221665.75,-340036.75,-0.07421875,1.009765625,-0.009033203125,-2.014159917831421,-0.2136230319738388,0.6713866591453552,66.66667175292969,44113.0,1.0
1681.2742759,95945.5859375,77454.0703125,-221470.84375,-222490.53125,-109491.0078125,-230332.140625,-221541.5625,-340013.0625,-0.075927734375,1.00927734375,-0.01123046875,-2.136230230331421,-0.2746581733226776,0.7629393935203552,66.66667175292969,44114.0,1.0
1681.2773683,83962.1875,79296.75,-222460.484375,-222025.15625,-108014.71875,-229686.0,-219841.125,-339185.875,-0.0771484375,1.008056640625,-0.01123046875,-2.014159917831421,-0.3662109076976776,0.6713866591453552,66.66667175292969,44115.0,1.0
1681.2773755,82136.2265625,80410.9375,-222276.125,-222022.484375,-107601.3046875,-229700.578125,-219704.0625,-339100.84375,-0.0771484375,1.008056640625,-0.0107421875,-1.9836424589157104,-0.2746581733226776,0.6408690810203552,66.66667175292969,44116.0,1.0
1681.291111,94129.1875,78548.1484375,-221248.578125,-222509.84375,-109000.609375,-230373.625,-221445.625,-339957.8125,-0.0771484375,1.00830078125,-0.00927734375,-2.014159917831421,-0.3051757514476776,0.7019042372703552,66.66667175292969,44117.0,1.0
1681.2911199,96817.8359375,76901.625,-221346.65625,-222563.84375,-109569.6875,-230428.25,-221746.75,-340140.90625,-0.076416015625,1.0087890625,-0.01416015625,-1.9836424589157104,-0.2746581733226776,0.7019042372703552,66.66667175292969,44118.0,1.0
1681.2936537,85276.3828125,78446.046875,-222344.96875,-222115.546875,-108643.7890625,-229809.109375,-220132.78125,-339361.90625,-0.075439453125,1.00830078125,-0.013671875,-1.9836424589157104,-0.3051757514476776,0.7934569716453552,66.66667175292969,44119.0,1.0
1681.293662,80652.25,80365.96875,-222420.515625,-221988.953125,-108018.5625,-229654.796875,-219556.1875,-339061.84375,-0.076171875,1.0087890625,-0.011474609375,-2.044677495956421,-0.3051757514476776,0.6713866591453552,66.66667175292969,44120.0,1.0
1681.3023656,91719.5859375,79034.609375,-221402.171875,-222451.71875,-109171.203125,-230291.734375,-221174.359375,-339855.25,-0.075927734375,1.008544921875,-0.011474609375,-1.9836424589157104,-0.3051757514476776,0.5493163466453552,66.66667175292969,44121.0,1.0
1681.3023742,97402.109375,77080.6171875,-221241.6875,-222624.375,-109979.53125,-230509.625,-221897.484375,-340240.875,-0.075439453125,1.009765625,-0.01171875,-2.105712652206421,-0.4272460639476776,0.5798339247703552,66.66667175292969,44122.0,1.0
1681.3048567,87343.3828125,78090.828125,-222202.8125,-222213.984375,-109109.328125,-229938.84375,-220455.359375,-339552.15625,-0.076904296875,1.010009765625,-0.011474609375,-2.075195074081421,-0.2441406100988388,0.6408690810203552,66.66667175292969,44123.0,1.0
1681.3048634,80026.9375,80337.2734375,-222543.015625,-221970.796875,-108182.0,-229624.3125,-219474.46875,-339057.375,-0.075927734375,1.009521484375,-0.0126953125,-2.075195074081421,-0.2136230319738388,0.6713866591453552,66.66667175292969,44124.0,1.0
1681.3155287,89400.6328125,79539.046875,-221594.40625,-222378.59375,-109099.765625,-230187.125,-220865.375,-339734.09375,-0.078857421875,1.008544921875,-0.01220703125,-1.9531248807907104,-0.3051757514476776,0.6103515028953552,66.66667175292969,44125.0,1.0
1681.3180325,97728.625,77351.7890625,-221176.875,-222664.421875,-110160.0390625,-230564.421875,-221980.1875,-340306.3125,-0.07763671875,1.008544921875,-0.011962890625,-1.9531248807907104,-0.2746581733226776,0.7324218153953552,66.66667175292969,44126.0,1.0
1681.3205348,89709.984375,77875.8046875,-222046.53125,-222317.703125,-109362.265625,-230076.265625,-220789.921875,-339749.125,-0.07763671875,1.00732421875,-0.01318359375,-2.014159917831421,-0.3051757514476776,0.7629393935203552,66.66667175292969,44127.0,1.0
1681.3267797,80253.9453125,80212.28125,-222625.53125,-221977.15625,-108106.1875,-229623.953125,-219473.9375,-339095.03125,-0.076171875,1.00830078125,-0.011962890625,-1.8920897245407104,-0.3051757514476776,0.7629393935203552,66.66667175292969,44128.0,1.0
1681.333488,87357.5078125,79980.625,-221805.40625,-222305.71875,-108726.7578125,-230080.734375,-220555.3125,-339614.5625,-0.07763671875,1.00927734375,-0.01220703125,-2.044677495956421,-0.3662109076976776,0.7629393935203552,66.66667175292969,44129.0,1.0
1681.3334965,97758.484375,77655.8671875,-221155.765625,-222686.859375,-109995.796875,-230593.03125,-221990.390625,-340338.3125,-0.07763671875,1.011474609375,-0.010009765625,-2.014159917831421,-0.2441406100988388,0.7324218153953552,66.66667175292969,44130.0,1.0
1681.340532,92034.03125,77630.7421875,-221884.171875,-222420.609375,-109497.890625,-230212.78125,-221111.515625,-339939.5625,-0.07666015625,1.0087890625,-0.01220703125,-1.9836424589157104,-0.2136230319738388,0.7019042372703552,66.66667175292969,44131.0,1.0
1681.3436525,80947.7421875,79937.3515625,-222650.65625,-222009.96875,-108136.40625,-229658.109375,-219558.25,-339173.15625,-0.076904296875,1.007568359375,-0.009033203125,-2.014159917831421,-0.2136230319738388,0.7629393935203552,66.66667175292969,44132.0,1.0
1681.3436611,85356.21875,80273.34375,-222006.5625,-222240.640625,-108437.078125,-229984.984375,-220268.234375,-339506.5625,-0.076416015625,1.0068359375,-0.007080078125,-1.9531248807907104,-0.3356933295726776,0.6408690810203552,66.66667175292969,44133.0,1.0
1681.345526,97126.203125,77981.578125,-221166.765625,-222685.875,-109816.1796875,-230590.171875,-221918.953125,-340328.46875,-0.0791015625,1.00927734375,-0.007568359375,-1.8615721464157104,-0.3967284858226776,0.6408690810203552,66.66667175292969,44134.0,1.0
1681.3567811,94096.5546875,77435.1171875,-221717.6875,-222514.484375,-109625.2109375,-230338.140625,-221403.34375,-340111.5,-0.077880859375,1.009521484375,-0.0107421875,-1.8615721464157104,-0.4272460639476776,0.7324218153953552,66.66667175292969,44135.0,1.0
1681.3598629,82260.59375,79643.2890625,-222632.6875,-222061.28125,-108178.3359375,-229717.109375,-219720.515625,-339288.5,-0.078125,1.010009765625,-0.01171875,-1.9531248807907104,-0.3662109076976776,0.6713866591453552,66.66667175292969,44136.0,1.0
1681.3598715,83730.625,80560.609375,-222209.34375,-222178.046875,-108108.8671875,-229893.328125,-220011.546875,-339414.28125,-0.0791015625,1.010009765625,-0.009765625,-1.9531248807907104,-0.2746581733226776,0.7019042372703552,66.66667175292969,44137.0,1.0
1681.361775,96062.703125,78471.6171875,-221243.828125,-222662.546875,-109502.5390625,-230555.578125,-221767.84375,-340283.96875,-0.078857421875,1.01025390625,-0.01123046875,-2.136230230331421,-0.3051757514476776,0.7324218153953552,66.66667175292969,44138.0,1.0
1681.3705409,95950.3203125,77402.578125,-221578.578125,-222602.46875,-109645.5078125,-230453.296875,-221657.34375,-340266.78125,-0.0771484375,1.00927734375,-0.013427734375,-2.044677495956421,-0.2746581733226776,0.7019042372703552,66.66667175292969,44139.0,1.0
1681.3748701,84008.40625,79261.5234375,-222568.046875,-222135.40625,-108187.8125,-229805.453125,-219956.015625,-339439.15625,-0.077392578125,1.009765625,-0.011474609375,-2.044677495956421,-0.2441406100988388,0.6103515028953552,66.66667175292969,44140.0,1.0
1681.3748787,82150.890625,80467.8046875,-222393.78125,-222128.609375,-107760.359375,-229815.375,-219803.75,-339346.53125,-0.078857421875,1.008056640625,-0.01123046875,-2.075195074081421,-0.2441406100988388,0.7324218153953552,66.66667175292969,44141.0,1.0
1681.3830306,94150.828125,78651.140625,-221367.484375,-222617.21875,-109131.6796875,-230489.765625,-221545.21875,-340204.46875,-0.076904296875,1.00830078125,-0.01025390625,-2.044677495956421,-0.1525878757238388,0.6408690810203552,66.66667175292969,44142.0,1.0
1681.3861119,96982.4375,77023.9375,-221457.25,-222675.78125,-109675.6328125,-230549.578125,-221861.734375,-340394.46875,-0.074951171875,1.0087890625,-0.01025390625,-2.075195074081421,-0.2136230319738388,0.6408690810203552,66.66667175292969,44143.0,1.0
1681.3861205,85539.59375,78530.890625,-222457.0,-222227.3125,-108683.75,-229929.546875,-220250.25,-339616.96875,-0.077392578125,1.008056640625,-0.009765625,-2.014159917831421,-0.1831054538488388,0.6713866591453552,66.66667175292969,44144.0,1.0
1681.3917856,80815.6875,80460.1171875,-222538.09375,-222096.78125,-108032.78125,-229770.484375,-219659.71875,-339311.03125,-0.07666015625,1.005859375,-0.009521484375,-2.014159917831421,-0.2746581733226776,0.7324218153953552,66.66667175292969,44145.0,1.0
1681.4036502,91840.015625,79152.984375,-221519.203125,-222558.390625,-109175.9375,-230406.0,-221272.265625,-340100.6875,-0.078125,1.00634765625,-0.01171875,-2.014159917831421,-0.2136230319738388,0.7019042372703552,66.66667175292969,44146.0,1.0
1681.4036587,97601.3984375,77175.03125,-221352.546875,-222735.953125,-109995.890625,-230630.5,-222010.140625,-340493.625,-0.077392578125,1.0078125,-0.01123046875,-1.9226073026657104,-0.2746581733226776,0.7324218153953552,66.66667175292969,44147.0,1.0
1681.4061027,87599.265625,78177.734375,-222311.171875,-222327.359375,-109131.4140625,-230061.953125,-220575.421875,-339809.03125,-0.075927734375,1.006591796875,-0.0107421875,-2.044677495956421,-0.1525878757238388,0.7324218153953552,66.66667175292969,44148.0,1.0
1681.4061095,80207.0,80457.34375,-222659.953125,-222080.6875,-108180.125,-229742.5,-219582.03125,-339308.875,-0.075927734375,1.008544921875,-0.013671875,-2.136230230331421,-0.3356933295726776,0.7324218153953552,66.66667175292969,44149.0,1.0
1681.408025,89509.3515625,79674.4921875,-221714.03125,-222485.78125,-109084.2109375,-230302.1875,-220963.984375,-339980.6875,-0.076416015625,1.009521484375,-0.010986328125,-2.044677495956421,-0.2441406100988388,0.7019042372703552,66.66667175292969,44150.0,1.0
1681.4167883,97916.46875,77481.7890625,-221288.890625,-222775.203125,-110151.90625,-230684.59375,-222091.328125,-340558.34375,-0.078857421875,1.008544921875,-0.008544921875,-2.014159917831421,-0.2746581733226776,0.7019042372703552,66.66667175292969,44151.0,1.0
1681.4211356,89962.5546875,77990.25,-222154.265625,-222429.734375,-109361.4609375,-230198.03125,-220908.375,-340004.5625,-0.0771484375,1.009033203125,-0.008544921875,-1.9226073026657104,-0.3967284858226776,0.7019042372703552,66.66667175292969,44152.0,1.0
1681.4211441,80432.21875,80321.53125,-222740.6875,-222086.140625,-108100.1015625,-229740.71875,-219582.03125,-339345.4375,-0.078369140625,1.0078125,-0.012939453125,-1.9531248807907104,-0.3051757514476776,0.6713866591453552,66.66667175292969,44153.0,1.0
1681.4242804,87464.2578125,80114.0234375,-221926.1875,-222413.640625,-108711.0234375,-230196.25,-220654.734375,-339861.0625,-0.0771484375,1.009521484375,-0.010986328125,-2.014159917831421,-0.2441406100988388,0.6713866591453552,66.66667175292969,44154.0,1.0
1681.4330212,97927.203125,77789.7109375,-221267.703125,-222796.03125,-109985.875,-230710.875,-222097.3125,-340588.03125,-0.07666015625,1.00830078125,-0.011962890625,-1.9836424589157104,-0.1831054538488388,0.7019042372703552,66.66667175292969,44155.0,1.0
1681.4423667,92295.8984375,77750.7265625,-221990.828125,-222531.203125,-109491.9921875,-230332.234375,-221228.90625,-340193.5625,-0.07568359375,1.0087890625,-0.01123046875,-1.9226073026657104,-0.3051757514476776,0.6408690810203552,66.66667175292969,44156.0,1.0
1681.4423752,81165.0,80067.6171875,-222764.734375,-222117.96875,-108110.1171875,-229772.71875,-219667.6875,-339423.6875,-0.07666015625,1.0107421875,-0.011474609375,-1.9531248807907104,-0.3356933295726776,0.7019042372703552,66.66667175292969,44157.0,1.0
1681.4442828,85474.953125,80430.1640625,-222123.78125,-222344.796875,-108398.6328125,-230095.84375,-220364.609375,-339750.09375,-0.075927734375,1.0078125,-0.012939453125,-1.9531248807907104,-0.2746581733226776,0.7019042372703552,66.66667175292969,44158.0,1.0
1681.4467915,97286.6875,78147.15625,-221280.84375,-222794.515625,-109780.2421875,-230707.5625,-222024.09375,-340577.84375,-0.080078125,1.009765625,-0.009033203125,-1.9226073026657104,-0.2746581733226776,0.6713866591453552,66.66667175292969,44159.0,1.0
1681.4530318,94356.734375,77576.2890625,-221825.609375,-222629.015625,-109601.4296875,-230462.59375,-221523.953125,-340368.90625,-0.0791015625,1.00927734375,-0.0107421875,-1.9836424589157104,-0.2746581733226776,0.7019042372703552,66.66667175292969,44160.0,1.0
1681.4598636,82494.484375,79777.3125,-222742.46875,-222172.140625,-108152.765625,-229833.875,-219834.953125,-339541.4375,-0.07666015625,1.010498046875,-0.01025390625,-2.105712652206421,-0.2746581733226776,0.7629393935203552,66.66667175292969,44161.0,1.0
1681.4598722,83850.9609375,80714.1171875,-222328.96875,-222284.53125,-108068.8125,-230005.984375,-220110.78125,-339659.90625,-0.076416015625,1.0087890625,-0.008056640625,-2.105712652206421,-0.3662109076976776,0.7324218153953552,66.66667175292969,44162.0,1.0
1681.4617808,96184.390625,78633.796875,-221361.765625,-222770.109375,-109460.609375,-230671.796875,-221868.796875,-340531.71875,-0.076904296875,1.008544921875,-0.010986328125,-2.014159917831421,-0.3051757514476776,0.7934569716453552,66.66667175292969,44163.0,1.0
1681.4705305,96169.1015625,77546.96875,-221689.796875,-222714.046875,-109614.65625,-230575.421875,-221772.40625,-340521.78125,-0.078369140625,1.0087890625,-0.01171875,-2.014159917831421,-0.2746581733226776,0.7629393935203552,66.66667175292969,44164.0,1.0
1681.4773624,84214.7578125,79371.9453125,-222679.71875,-222247.078125,-108143.375,-229926.953125,-220072.78125,-339693.78125,-0.077880859375,1.0078125,-0.0078125,-1.9226073026657104,-0.2746581733226776,0.7019042372703552,66.66667175292969,44165.0,1.0
1681.4773713,82183.96875,80502.40625,-222511.265625,-222235.984375,-107704.2109375,-229929.546875,-219907.375,-339594.28125,-0.07763671875,1.008056640625,-0.010009765625,-2.044677495956421,-0.2441406100988388,0.7629393935203552,66.66667175292969,44166.0,1.0
1681.4800585,94120.7890625,78657.578125,-221484.25,-222723.609375,-109099.671875,-230603.5,-221645.09375,-340450.0625,-0.078125,1.00927734375,-0.00830078125,-2.166747808456421,-0.1831054538488388,0.7324218153953552,66.66667175292969,44167.0,1.0
1681.4800655,97012.2109375,76993.1796875,-221567.125,-222785.84375,-109679.03125,-230669.03125,-221974.109375,-340646.875,-0.078125,1.010498046875,-0.008544921875,-2.044677495956421,-0.2746581733226776,0.6713866591453552,66.66667175292969,44168.0,1.0
1681.4905301,85560.3359375,78512.7421875,-222570.1875,-222339.25,-108746.6953125,-230051.9375,-220368.1875,-339873.65625,-0.0771484375,1.0087890625,-0.007568359375,-2.044677495956421,-0.2746581733226776,0.6713866591453552,66.66667175292969,44169.0,1.0
1681.4948606,80733.4296875,80450.1875,-222656.5625,-222204.875,-108121.7421875,-229886.890625,-219764.5,-339560.03125,-0.076904296875,1.0087890625,-0.010009765625,-2.105712652206421,-0.3662109076976776,0.6713866591453552,66.66667175292969,44170.0,1.0
1681.4948688,91690.171875,79135.375,-221638.828125,-222665.5,-109269.1015625,-230520.609375,-221371.15625,-340347.25,-0.07666015625,1.009033203125,-0.0107421875,-2.075195074081421,-0.2746581733226776,0.7019042372703552,66.66667175292969,44171.0,1.0
1681.5030306,97554.5546875,77168.953125,-221462.171875,-222845.5625,-110092.5390625,-230748.953125,-222120.65625,-340744.9375,-0.07666015625,1.00732421875,-0.010009765625,-1.9836424589157104,-0.3051757514476776,0.6713866591453552,66.66667175292969,44172.0,1.0
1681.5104626,87624.03125,78160.296875,-222419.53125,-222439.828125,-109216.796875,-230183.734375,-220693.71875,-340064.65625,-0.07666015625,1.01025390625,-0.01025390625,-2.014159917831421,-0.2136230319738388,0.6713866591453552,66.66667175292969,44173.0,1.0
1681.5104709,80156.3984375,80432.3984375,-222778.15625,-222192.359375,-108253.796875,-229861.953125,-219691.90625,-339561.375,-0.076416015625,1.010498046875,-0.01025390625,-2.075195074081421,-0.1831054538488388,0.6713866591453552,66.66667175292969,44174.0,1.0
1681.5104749,89392.3203125,79665.5546875,-221838.21875,-222597.546875,-109147.953125,-230420.65625,-221067.171875,-340231.03125,-0.076416015625,1.0107421875,-0.01025390625,-2.014159917831421,-0.2441406100988388,0.7019042372703552,66.66667175292969,44175.0,1.0
1681.5130434,97869.4453125,77470.1640625,-221403.15625,-222887.671875,-110222.625,-230805.109375,-222201.921875,-340811.46875,-0.076904296875,1.0087890625,-0.0107421875,-2.044677495956421,-0.1831054538488388,0.6408690810203552,66.66667175292969,44176.0,1.0
1681.5167772,89989.5546875,77967.5390625,-222262.8125,-222543.71875,-109442.546875,-230321.0625,-221027.921875,-340261.15625,-0.078857421875,1.0087890625,-0.01025390625,-2.075195074081421,-0.1831054538488388,0.6408690810203552,66.66667175292969,44177.0,1.0
1681.5255296,80400.2109375,80300.7890625,-222856.203125,-222197.625,-108176.7265625,-229860.796875,-219692.890625,-339598.03125,-0.077880859375,1.01025390625,-0.010498046875,-2.075195074081421,-0.2746581733226776,0.6103515028953552,66.66667175292969,44178.0,1.0
1681.5300978,87336.5859375,80095.6015625,-222048.40625,-222521.8125,-108777.71875,-230312.203125,-220754.25,-340108.53125,-0.07763671875,1.011474609375,-0.009765625,-2.075195074081421,-0.2441406100988388,0.6408690810203552,66.66667175292969,44179.0,1.0
1681.5301048,97854.6875,77774.328125,-221383.84375,-222906.890625,-110054.6328125,-230830.671875,-222205.671875,-340839.34375,-0.077880859375,1.009765625,-0.011474609375,-1.9531248807907104,-0.2441406100988388,0.6713866591453552,66.66667175292969,44180.0,1.0
1681.5403808,92308.59375,77730.6953125,-222101.609375,-222643.6875,-109569.0625,-230454.28125,-221345.765625,-340448.90625,-0.07666015625,1.010009765625,-0.010498046875,-1.9531248807907104,-0.2136230319738388,0.7019042372703552,66.66667175292969,44181.0,1.0
1681.5486511,81167.1484375,80056.265625,-222882.046875,-222229.09375,-108178.78125,-229892.625,-219780.15625,-339677.59375,-0.07763671875,1.00830078125,-0.009521484375,-2.014159917831421,-0.3356933295726776,0.7019042372703552,66.66667175292969,44182.0,1.0
1681.5486592,85364.0859375,80413.3515625,-222247.15625,-222454.859375,-108467.1171875,-230213.765625,-220466.984375,-340000.0,-0.078369140625,1.007568359375,-0.010009765625,-1.9836424589157104,-0.2441406100988388,0.6713866591453552,66.66667175292969,44183.0,1.0
1681.550528,97195.1328125,78133.7421875,-221398.421875,-222905.203125,-109850.875,-230826.390625,-222129.765625,-340828.71875,-0.0771484375,1.010009765625,-0.010498046875,-2.044677495956421,-0.3051757514476776,0.6408690810203552,66.66667175292969,44184.0,1.0
1681.5530369,94338.671875,77553.4921875,-221936.375,-222739.96875,-109679.75,-230582.390625,-221637.140625,-340622.625,-0.078857421875,1.009765625,-0.01025390625,-2.136230230331421,-0.3662109076976776,0.6103515028953552,66.66667175292969,44185.0,1.0
1681.5556072,82473.7421875,79745.75,-222857.359375,-222284.171875,-108233.4140625,-229956.015625,-219948.78125,-339796.6875,-0.07763671875,1.009521484375,-0.0107421875,-2.105712652206421,-0.3051757514476776,0.6408690810203552,66.66667175292969,44186.0,1.0
1681.5592757,83764.421875,80706.703125,-222448.5,-222393.78125,-108140.9609375,-230124.09375,-220214.21875,-339909.6875,-0.076416015625,1.009521484375,-0.011474609375,-2.044677495956421,-0.2136230319738388,0.6103515028953552,66.66667175292969,44187.0,1.0
1681.5680306,96095.3359375,78624.140625,-221477.546875,-222878.46875,-109532.1328125,-230788.484375,-221972.234375,-340780.0,-0.076416015625,1.007568359375,-0.01171875,-2.014159917831421,-0.2746581733226776,0.7019042372703552,66.66667175292969,44188.0,1.0
1681.5711147,96155.2421875,77515.765625,-221800.03125,-222826.34375,-109695.5703125,-230697.1875,-221887.921875,-340776.59375,-0.07666015625,1.009033203125,-0.011962890625,-2.014159917831421,-0.2136230319738388,0.7629393935203552,66.66667175292969,44189.0,1.0
1681.5711217,84223.34375,79343.2421875,-222791.375,-222359.015625,-108236.1796875,-230048.71875,-220189.015625,-339949.75,-0.076904296875,1.008544921875,-0.011474609375,-2.014159917831421,-0.3051757514476776,0.7324218153953552,66.66667175292969,44190.0,1.0
1681.57678,82152.0546875,80539.5078125,-222629.640625,-222343.8125,-107787.8046875,-230046.125,-220010.015625,-339843.0,-0.075927734375,1.010009765625,-0.010498046875,-2.044677495956421,-0.2746581733226776,0.7324218153953552,66.66667175292969,44191.0,1.0
1681.5861128,94093.515625,78728.3046875,-221601.203125,-222830.8125,-109165.921875,-230718.390625,-221745.046875,-340697.03125,-0.0771484375,1.009033203125,-0.010986328125,-1.9836424589157104,-0.3356933295726776,0.7324218153953552,66.66667175292969,44192.0,1.0
1681.5861218,97056.015625,77032.34375,-221677.546875,-222897.328125,-109764.859375,-230790.0,-222087.484375,-340900.5,-0.076416015625,1.007568359375,-0.01318359375,-2.014159917831421,-0.2441406100988388,0.7019042372703552,66.66667175292969,44193.0,1.0
1681.5961098,85626.40625,78557.53125,-222680.34375,-222450.734375,-108841.9140625,-230172.375,-220484.0625,-340128.21875,-0.076416015625,1.010009765625,-0.009033203125,-2.014159917831421,-0.2136230319738388,0.7324218153953552,66.66667175292969,44194.0,1.0
1681.5961181,80721.8984375,80534.6796875,-222777.875,-222315.28125,-108189.5078125,-230004.921875,-219870.359375,-339811.53125,-0.076171875,1.0087890625,-0.009765625,-2.075195074081421,-0.2136230319738388,0.7324218153953552,66.66667175292969,44195.0,1.0
1681.598024,91628.5703125,79234.078125,-221757.03125,-222773.328125,-109336.2421875,-230636.484375,-221470.578125,-340594.46875,-0.075927734375,1.009033203125,-0.009033203125,-1.9531248807907104,-0.1831054538488388,0.6713866591453552,66.66667175292969,44196.0,1.0
1681.6042968,97563.671875,77247.1875,-221572.046875,-222956.15625,-110169.25,-230869.390625,-222231.421875,-340997.34375,-0.076904296875,1.008544921875,-0.0107421875,-1.9836424589157104,-0.2746581733226776,0.7019042372703552,66.66667175292969,44197.0,1.0
1681.6067884,87670.7890625,78207.6875,-222527.71875,-222551.59375,-109305.0390625,-230306.125,-220811.546875,-340320.4375,-0.07861328125,1.00830078125,-0.013427734375,-1.9226073026657104,-0.2746581733226776,0.6713866591453552,66.66667175292969,44198.0,1.0
1681.6092784,80136.375,80475.1328125,-222891.34375,-222298.84375,-108348.2109375,-229977.375,-219796.6875,-339809.65625,-0.078125,1.008056640625,-0.011474609375,-1.9226073026657104,-0.2441406100988388,0.6713866591453552,66.66667175292969,44199.0,1.0
1681.6117799,89317.6640625,79718.484375,-221954.984375,-222702.515625,-109242.7265625,-230534.109375,-221164.703125,-340475.5625,-0.076904296875,1.007080078125,-0.01318359375,-2.136230230331421,-0.2441406100988388,0.7629393935203552,66.66667175292969,44200.0,1.0
1681.6156073,97861.578125,77516.390625,-221514.65625,-222997.375,-110324.640625,-230924.828125,-222311.890625,-341062.78125,-0.076416015625,1.009765625,-0.01416015625,-2.105712652206421,-0.2441406100988388,0.7324218153953552,66.66667175292969,44201.0,1.0
1681.6192726,90039.359375,78001.6015625,-222373.21875,-222656.90625,-109550.015625,-230445.0625,-221146.65625,-340518.46875,-0.077880859375,1.00927734375,-0.01171875,-1.9836424589157104,-0.2746581733226776,0.7629393935203552,66.66667175292969,44202.0,1.0
1681.6286494,80405.578125,80340.0390625,-222973.234375,-222309.484375,-108276.6796875,-229982.109375,-219804.5625,-339852.3125,-0.076904296875,1.01025390625,-0.01171875,-2.075195074081421,-0.3051757514476776,0.7019042372703552,66.66667175292969,44203.0,1.0
1681.6286581,87289.0234375,80158.9921875,-222168.03125,-222631.4375,-108868.2890625,-230429.859375,-220857.234375,-340358.15625,-0.076904296875,1.00927734375,-0.009521484375,-2.014159917831421,-0.1831054538488388,0.7934569716453552,66.66667175292969,44204.0,1.0
1681.6311028,97854.2421875,77835.9296875,-221496.328125,-223016.78125,-110149.9375,-230949.5,-222313.5,-341089.96875,-0.07666015625,1.010009765625,-0.012451171875,-2.075195074081421,-0.2746581733226776,0.6408690810203552,66.66667175292969,44205.0,1.0
1681.6311093,92381.28125,77771.9140625,-222210.953125,-222758.03125,-109671.5234375,-230578.8125,-221465.828125,-340706.5,-0.077880859375,1.009033203125,-0.011474609375,-2.014159917831421,-0.2441406100988388,0.6408690810203552,66.66667175292969,44206.0,1.0
1681.6417812,81222.484375,80112.5,-222999.875,-222342.109375,-108267.4765625,-230015.28125,-219895.21875,-339933.5625,-0.080078125,1.009033203125,-0.008544921875,-2.014159917831421,-0.1831054538488388,0.6713866591453552,66.66667175292969,44207.0,1.0
1681.64483,85323.3203125,80479.3359375,-222370.0,-222564.828125,-108551.1640625,-230332.234375,-220570.421875,-340250.34375,-0.07861328125,1.00830078125,-0.00927734375,-2.014159917831421,-0.2136230319738388,0.6713866591453552,66.66667175292969,44208.0,1.0
1681.6448379,97164.46875,78194.9921875,-221514.65625,-223015.34375,-109941.796875,-230945.484375,-222235.53125,-341079.21875,-0.077392578125,1.00927734375,-0.008544921875,-1.9836424589157104,-0.1831054538488388,0.7629393935203552,66.66667175292969,44209.0,1.0
1681.6530284,94390.8828125,77601.59375,-222046.984375,-222853.515625,-109780.7734375,-230705.515625,-221754.96875,-340879.3125,-0.076416015625,1.0087890625,-0.010986328125,-1.9531248807907104,-0.1831054538488388,0.7324218153953552,66.66667175292969,44210.0,1.0
1681.6556052,82520.140625,79797.96875,-222970.1875,-222396.375,-108327.015625,-230077.78125,-220064.921875,-340052.03125,-0.078369140625,1.008544921875,-0.0078125,-2.075195074081421,-0.3356933295726776,0.7629393935203552,66.66667175292969,44211.0,1.0
1681.6592897,83716.9453125,80776.796875,-222568.578125,-222502.6875,-108212.578125,-230241.3125,-220317.9375,-340158.96875,-0.07861328125,1.008544921875,-0.009033203125,-2.044677495956421,-0.2746581733226776,0.7019042372703552,66.66667175292969,44212.0,1.0
1681.6636556,96059.3984375,78716.0546875,-221593.78125,-222987.09375,-109598.921875,-230905.15625,-222075.953125,-341028.71875,-0.077880859375,1.0087890625,-0.01025390625,-2.075195074081421,-0.3356933295726776,0.7019042372703552,66.66667175292969,44213.0,1.0
1681.6636642,96206.203125,77601.0546875,-221909.734375,-222938.359375,-109772.015625,-230818.34375,-222003.4375,-341031.21875,-0.078125,1.010009765625,-0.010986328125,-2.014159917831421,-0.2746581733226776,0.7019042372703552,66.66667175292969,44214.0,1.0
1681.6767767,84289.5078125,79418.078125,-222901.796875,-222470.765625,-108321.296875,-230169.6875,-220305.15625,-340204.5625,-0.07861328125,1.00927734375,-0.0146484375,-2.014159917831421,-0.2136230319738388,0.7629393935203552,66.66667175292969,44215.0,1.0
1681.6800241,82144.5390625,80639.640625,-222746.671875,-222450.5625,-107859.421875,-230161.640625,-220112.296875,-340090.65625,-0.07861328125,1.00927734375,-0.0126953125,-2.105712652206421,-0.3356933295726776,0.8239745497703552,66.66667175292969,44216.0,1.0
1681.6800295,94058.203125,78837.203125,-221719.921875,-222938.453125,-109230.65625,-230835.5,-221846.796875,-340945.375,-0.0771484375,1.009765625,-0.010986328125,-2.014159917831421,-0.2441406100988388,0.8850097060203552,66.66667175292969,44217.0,1.0
1681.6830414,97158.03125,77183.3515625,-221788.0625,-223007.484375,-109795.796875,-230910.25,-222200.484375,-341153.53125,-0.075927734375,1.009521484375,-0.01171875,-1.9836424589157104,-0.2746581733226776,0.7934569716453552,66.66667175292969,44218.0,1.0
1681.6923626,85840.8984375,78666.34375,-222790.046875,-222561.25,-108799.265625,-230291.90625,-220600.640625,-340382.65625,-0.077392578125,1.0087890625,-0.009521484375,-2.014159917831421,-0.1831054538488388,0.7629393935203552,66.66667175292969,44219.0,1.0
1681.6923715,80875.5859375,80635.53125,-222895.265625,-222419.890625,-108122.546875,-230118.46875,-219972.828125,-340058.375,-0.076904296875,1.00830078125,-0.009033203125,-2.014159917831421,-0.2136230319738388,0.7934569716453552,66.66667175292969,44220.0,1.0
1681.7011113,91714.3984375,79332.2421875,-221877.640625,-222880.15625,-109273.3046875,-230752.0,-221570.703125,-340841.40625,-0.076171875,1.008544921875,-0.008056640625,-2.014159917831421,-0.1831054538488388,0.7019042372703552,66.66667175292969,44221.0,1.0
1681.7011201,97738.1953125,77344.7265625,-221685.859375,-223068.546875,-110114.0,-230991.078125,-222345.328125,-341252.0625,-0.076904296875,1.009765625,-0.011962890625,-2.075195074081421,-0.1525878757238388,0.6103515028953552,66.66667175292969,44222.0,1.0
1681.7048581,87918.359375,78305.5859375,-222637.78125,-222664.25,-109236.734375,-230428.25,-220929.65625,-340577.5625,-0.076416015625,1.0087890625,-0.007080078125,-2.014159917831421,-0.2441406100988388,0.6713866591453552,66.66667175292969,44223.0,1.0
1681.704866,80310.09375,80583.140625,-223009.53125,-222408.546875,-108253.078125,-230095.578125,-219903.890625,-340061.4375,-0.076416015625,1.009033203125,-0.00927734375,-2.044677495956421,-0.2441406100988388,0.6408690810203552,66.66667175292969,44224.0,1.0
1681.715528,89436.9296875,79855.0078125,-222075.59375,-222810.609375,-109131.234375,-230649.8125,-221264.484375,-340723.03125,-0.07568359375,1.008056640625,-0.0078125,-2.014159917831421,-0.2441406100988388,0.6103515028953552,66.66667175292969,44225.0,1.0
1681.7254604,98043.3359375,77640.578125,-221629.625,-223109.9375,-110220.4765625,-231045.703125,-222423.203125,-341316.25,-0.076904296875,1.010009765625,-0.008056640625,-1.9836424589157104,-0.2136230319738388,0.6713866591453552,66.66667175292969,44226.0,1.0
1681.7254682,90279.0546875,78106.5625,-222482.65625,-222768.765625,-109453.9921875,-230565.5,-221263.421875,-340773.625,-0.075927734375,1.0078125,-0.012939453125,-1.9836424589157104,-0.1831054538488388,0.7629393935203552,66.66667175292969,44227.0,1.0
1681.7254723,80589.84375,80464.3203125,-223087.765625,-222416.765625,-108163.2265625,-230096.828125,-219912.203125,-340102.46875,-0.076171875,1.006591796875,-0.01318359375,-2.014159917831421,-0.2136230319738388,0.7629393935203552,66.66667175292969,44228.0,1.0
1681.7311011,87392.640625,80309.4609375,-222288.375,-222737.015625,-108736.6796875,-230542.875,-220954.15625,-340603.21875,-0.07861328125,1.00732421875,-0.013916015625,-1.9531248807907104,-0.0915527269244194,0.6408690810203552,66.66667175292969,44229.0,1.0
1681.7311078,98010.2578125,77983.359375,-221611.203125,-223127.109375,-110022.625,-231068.328125,-222421.140625,-341341.28125,-0.078125,1.007568359375,-0.01318359375,-1.8920897245407104,-0.1831054538488388,0.6408690810203552,66.66667175292969,44230.0,1.0
1681.7330251,92608.5546875,77908.2578125,-222320.921875,-222869.96875,-109552.7890625,-230699.609375,-221581.4375,-340961.65625,-0.077880859375,1.008056640625,-0.010498046875,-2.014159917831421,-0.3662109076976776,0.7324218153953552,66.66667175292969,44231.0,1.0
1681.7367844,81417.75,80237.1328125,-223113.25,-222450.109375,-108144.0,-230127.484375,-220003.671875,-340184.0,-0.075927734375,1.009033203125,-0.007080078125,-2.014159917831421,-0.3356933295726776,0.7934569716453552,66.66667175292969,44232.0,1.0
1681.7455257,85442.5,80625.0703125,-222491.15625,-222670.953125,-108415.7109375,-230444.890625,-220668.59375,-340495.5,-0.076416015625,1.00927734375,-0.0078125,-1.9531248807907104,-0.3051757514476776,0.8239745497703552,66.66667175292969,44233.0,1.0
1681.7547091,97301.6171875,78336.4296875,-221630.15625,-223124.25,-109816.8984375,-231063.578125,-222340.6875,-341327.96875,-0.07763671875,1.008544921875,-0.010498046875,-2.014159917831421,-0.2441406100988388,0.6713866591453552,66.66667175292969,44234.0,1.0
1681.7547177,94617.171875,77724.0859375,-222155.15625,-222965.546875,-109662.671875,-230827.546875,-221871.390625,-341133.5,-0.077880859375,1.0087890625,-0.009765625,-2.105712652206421,-0.2441406100988388,0.6408690810203552,66.66667175292969,44235.0,1.0
1681.763644,82625.734375,79809.4140625,-223081.0625,-222507.421875,-108133.2734375,-230195.0,-220178.734375,-340304.78125,-0.076416015625,1.010498046875,-0.01220703125,-2.044677495956421,-0.2746581733226776,0.6713866591453552,66.66667175292969,44236.0,1.0
1681.7636508,83458.9140625,80548.8984375,-222688.296875,-222609.890625,-108046.4609375,-230353.421875,-220417.453125,-340404.9375,-0.077880859375,1.009521484375,-0.009521484375,-2.014159917831421,-0.3051757514476776,0.6713866591453552,66.66667175292969,44237.0,1.0
1681.7742061,95755.4140625,78439.6953125,-221711.078125,-223095.1875,-109489.3125,-231020.125,-222177.25,-341275.46875,-0.07861328125,1.009765625,-0.007568359375,-2.044677495956421,-0.2441406100988388,0.7019042372703552,66.66667175292969,44238.0,1.0
1681.7742141,95906.3359375,77205.96875,-222018.015625,-223048.6875,-109757.890625,-230936.984375,-222117.078125,-341283.34375,-0.077880859375,1.00927734375,-0.01123046875,-2.105712652206421,-0.1220703050494194,0.7629393935203552,66.66667175292969,44239.0,1.0
1681.7742182,83845.78125,79133.5859375,-223013.375,-222583.234375,-108616.1640625,-230296.65625,-220422.28125,-340459.46875,-0.077392578125,1.00927734375,-0.005859375,-2.044677495956421,-0.2136230319738388,0.7019042372703552,66.66667175292969,44240.0,1.0
1681.7767713,81843.6875,80704.734375,-222867.828125,-222561.25,-108213.3828125,-230284.578125,-220217.078125,-340340.71875,-0.0771484375,1.008544921875,-0.008544921875,-2.044677495956421,-0.3051757514476776,0.7019042372703552,66.66667175292969,44241.0,1.0
1681.7792716,93815.015625,78983.109375,-221838.296875,-223046.8125,-109511.390625,-230951.90625,-221946.578125,-341191.78125,-0.0771484375,1.01025390625,-0.011474609375,-2.075195074081421,-0.3051757514476776,0.7629393935203552,66.66667175292969,44242.0,1.0
1681.7817753,97043.0546875,77384.9609375,-221900.171875,-223120.671875,-110030.3984375,-231032.65625,-222314.75,-341407.625,-0.07666015625,1.009521484375,-0.0107421875,-1.9836424589157104,-0.2746581733226776,0.7934569716453552,66.66667175292969,44243.0,1.0
1681.7880309,86001.109375,78843.7265625,-222901.359375,-222675.234375,-108806.8671875,-230412.875,-220719.734375,-340639.0,-0.077880859375,1.009521484375,-0.010986328125,-1.9531248807907104,-0.3051757514476776,0.7629393935203552,66.66667175292969,44244.0,1.0
1681.813027,81038.3984375,80728.15625,-223016.515625,-222529.234375,-108040.9140625,-230233.34375,-220078.0625,-340307.28125,-0.076416015625,1.010009765625,-0.011962890625,-2.044677495956421,-0.3967284858226776,0.7934569716453552,66.66667175292969,44245.0,1.0
1681.8155257,91830.984375,79439.53125,-221996.734375,-222987.453125,-109190.2421875,-230866.4375,-221669.5,-341086.46875,-0.0751953125,1.008544921875,-0.010986328125,-2.105712652206421,-0.2746581733226776,0.7629393935203552,66.66667175292969,44246.0,1.0
1681.8267092,97934.9765625,77434.2265625,-221796.546875,-223179.40625,-110043.6328125,-231111.421875,-222457.625,-341503.8125,-0.077392578125,1.008544921875,-0.009033203125,-2.044677495956421,-0.2441406100988388,0.7629393935203552,66.66667175292969,44247.0,1.0
1681.8267174,88163.6015625,78370.046875,-222747.390625,-222778.328125,-109177.7265625,-230551.28125,-221050.890625,-340834.34375,-0.07763671875,1.00927734375,-0.01025390625,-2.044677495956421,-0.2136230319738388,0.8239745497703552,66.66667175292969,44248.0,1.0
1681.8267217,80477.1015625,80661.7265625,-223127.015625,-222518.78125,-108185.7578125,-230213.328125,-220012.4375,-340312.21875,-0.076904296875,1.00830078125,-0.00830078125,-2.014159917831421,-0.2441406100988388,0.7629393935203552,66.66667175292969,44249.0,1.0
1681.8292755,89528.84375,79951.296875,-222195.65625,-222916.8125,-109053.09375,-230764.515625,-221362.296875,-340968.46875,-0.076171875,1.009033203125,-0.0087890625,-1.9836424589157104,-0.2136230319738388,0.7629393935203552,66.66667175292969,44250.0,1.0
1681.831784,98223.40625,77736.1484375,-221740.40625,-223218.75,-110149.9375,-231164.34375,-222532.09375,-341566.84375,-0.076904296875,1.0087890625,-0.011474609375,-2.014159917831421,-0.2441406100988388,0.7629393935203552,66.66667175292969,44251.0,1.0
1681.8342815,90541.46875,78188.90625,-222588.78125,-222880.703125,-109391.5859375,-230686.828125,-221382.953125,-341029.625,-0.076904296875,1.008544921875,-0.0126953125,-2.075195074081421,-0.3051757514476776,0.6713866591453552,66.66667175292969,44252.0,1.0
1681.8367767,80784.0390625,80545.3203125,-223201.3125,-222526.828125,-108095.2734375,-230212.34375,-220022.0,-340353.96875,-0.07763671875,1.009521484375,-0.012939453125,-2.075195074081421,-0.2746581733226776,0.7629393935203552,66.66667175292969,44253.0,1.0
1681.8392828,87497.9609375,80404.234375,-222407.203125,-222843.5,-108659.6171875,-230656.78125,-221052.59375,-340849.0,-0.076904296875,1.009521484375,-0.00927734375,-2.105712652206421,-0.2746581733226776,0.8544921278953552,66.66667175292969,44254.0,1.0
1681.841781,98173.875,78072.234375,-221722.515625,-223235.375,-109950.828125,-231185.984375,-222528.34375,-341590.375,-0.07666015625,1.008544921875,-0.0087890625,-2.075195074081421,-0.1831054538488388,0.7324218153953552,66.66667175292969,44255.0,1.0
1681.8442675,92843.609375,77969.0546875,-222427.671875,-222980.75,-109481.796875,-230820.578125,-221699.28125,-341216.375,-0.0751953125,1.00830078125,-0.010009765625,-2.105712652206421,-0.2441406100988388,0.7934569716453552,66.66667175292969,44256.0,1.0
1681.8505258,81461.4765625,80163.28125,-223229.46875,-222562.234375,-107973.953125,-230247.03125,-220118.734375,-340439.15625,-0.075927734375,1.010009765625,-0.01123046875,-1.9836424589157104,-0.2136230319738388,0.7324218153953552,66.66667175292969,44257.0,1.0
1681.8530336,85172.3984375,80356.8515625,-222614.09375,-222778.234375,-108287.7734375,-230558.796875,-220769.0,-340742.96875,-0.0771484375,1.01220703125,-0.012451171875,-1.9226073026657104,-0.1831054538488388,0.7019042372703552,66.66667175292969,44258.0,1.0
1681.8561195,97006.84375,78024.3984375,-221743.703125,-223230.90625,-109740.09375,-231176.953125,-222442.6875,-341575.0,-0.07568359375,1.0087890625,-0.009765625,-2.044677495956421,-0.1525878757238388,0.6713866591453552,66.66667175292969,44259.0,1.0
1681.8561274,94232.3671875,77257.2890625,-222264.78125,-223077.84375,-109765.7578125,-230949.59375,-221989.046875,-341389.28125,-0.076416015625,1.00830078125,-0.010986328125,-1.9531248807907104,-0.1831054538488388,0.7934569716453552,66.66667175292969,44260.0,1.0
1681.8580216,82105.7421875,79551.46875,-223194.34375,-222619.625,-108580.6640625,-230324.71875,-220295.765625,-340561.21875,-0.075439453125,1.00927734375,-0.00927734375,-1.9531248807907104,-0.1831054538488388,0.6713866591453552,66.66667175292969,44261.0,1.0
1681.8604901,83093.1484375,80589.3046875,-222805.953125,-222716.28125,-108508.0703125,-230472.25,-220518.03125,-340651.875,-0.076171875,1.010009765625,-0.009765625,-2.014159917831421,-0.3662109076976776,0.7324218153953552,66.66667175292969,44262.0,1.0
1681.8698705,95439.359375,78537.0625,-221825.875,-223201.671875,-109897.0078125,-231136.625,-222278.453125,-341522.25,-0.0771484375,1.0087890625,-0.0087890625,-2.014159917831421,-0.2136230319738388,0.7324218153953552,66.66667175292969,44263.0,1.0
1681.8698792,95720.2734375,77329.796875,-222125.203125,-223158.578125,-110133.7578125,-231058.3125,-222231.0625,-341536.1875,-0.077392578125,1.0107421875,-0.009033203125,-2.105712652206421,-0.1831054538488388,0.6713866591453552,66.66667175292969,44264.0,1.0
