Time,FZ,C3,CZ,C4,PZ,PO7,OZ,PO8,AccX,AccY,AccZ,Gyro1,Gyro2,Gyro3,Battery,Counter,Validation
1950.2568219,-25400.703125,18514.21875,-455342.0625,-442975.21875,-316315.71875,-484260.03125,-438259.4375,-750000.125,-0.07275390625,1.01123046875,-0.006103515625,-1.9836424589157104,-0.3356933295726776,0.7629393935203552,66.66667175292969,111381.0,1.0
1950.260584,-27638.916015625,17853.94921875,-455858.125,-442852.4375,-316361.25,-484014.875,-437819.09375,-750000.125,-0.07177734375,1.01123046875,-0.0087890625,-1.9226073026657104,-0.2746581733226776,0.7324218153953552,66.66667175292969,111382.0,1.0
1950.2699088,-38645.72265625,19668.1953125,-456740.40625,-442460.40625,-316061.8125,-483464.21875,-436259.40625,-750000.125,-0.0751953125,1.01171875,-0.008056640625,-2.014159917831421,-0.3356933295726776,0.7629393935203552,66.66667175292969,111383.0,1.0
1950.2699174,-37819.2421875,20613.94140625,-456346.8125,-442531.84375,-315975.09375,-483636.4375,-436483.90625,-750000.125,-0.072265625,1.009033203125,-0.006591796875,-1.9531248807907104,-0.3051757514476776,0.7019042372703552,66.66667175292969,111384.0,1.0
1950.2718299,-26396.607421875,18870.05859375,-455411.09375,-442944.625,-316277.5625,-484224.375,-438104.40625,-750000.125,-0.072998046875,1.0107421875,-0.007568359375,-1.9226073026657104,-0.3051757514476776,0.7019042372703552,66.66667175292969,111385.0,1.0
1950.2755712,-26023.33203125,17632.93359375,-455713.75,-442918.34375,-316395.125,-484112.25,-438041.28125,-750000.125,-0.072998046875,1.009765625,-0.001953125,-1.8615721464157104,-0.2746581733226776,0.6713866591453552,66.66667175292969,111386.0,1.0
1950.2855763,-37202.78125,19163.939453125,-456655.625,-442521.28125,-316126.90625,-483539.4375,-436476.84375,-750000.125,-0.07177734375,1.009521484375,-0.00634765625,-1.9836424589157104,-0.2136230319738388,0.7019042372703552,66.66667175292969,111387.0,1.0
1950.288663,-39341.84375,20594.18359375,-456500.59375,-442484.1875,-315965.15625,-483562.59375,-436287.125,-750000.125,-0.07373046875,1.01025390625,-0.00439453125,-1.9226073026657104,-0.2441406100988388,0.6103515028953552,66.66667175292969,111388.0,1.0
1950.2886713,-28295.87890625,19192.818359375,-455516.0625,-442897.6875,-316233.3125,-484164.28125,-437884.28125,-750000.125,-0.073486328125,1.0107421875,-0.0078125,-1.9531248807907104,-0.3356933295726776,0.6408690810203552,66.66667175292969,111389.0,1.0
1950.2905874,-25082.4140625,17656.359375,-455586.40625,-442975.84375,-316419.28125,-484198.0,-438218.125,-750000.125,-0.072998046875,1.00927734375,-0.00732421875,-1.9531248807907104,-0.2746581733226776,0.7629393935203552,66.66667175292969,111390.0,1.0
1950.2993246,-35348.9296875,18793.884765625,-456544.59375,-442598.90625,-316199.59375,-483637.25,-436747.375,-750000.125,-0.073486328125,1.007568359375,-0.005859375,-2.014159917831421,-0.2441406100988388,0.6713866591453552,66.66667175292969,111391.0,1.0
1950.3061829,-40253.16796875,20574.603515625,-456645.1875,-442455.03125,-315973.125,-483508.84375,-436154.34375,-750000.125,-0.07177734375,1.0087890625,-0.009521484375,-2.014159917831421,-0.2441406100988388,0.7019042372703552,66.66667175292969,111392.0,1.0
1950.3061907,-30320.857421875,19597.5625,-455673.9375,-442837.53125,-316184.84375,-484080.4375,-437616.40625,-750000.125,-0.072265625,1.009521484375,-0.0068359375,-1.9836424589157104,-0.1831054538488388,0.7019042372703552,66.66667175292969,111393.0,1.0
1950.3086611,-24439.3984375,17832.04296875,-455494.875,-443017.3125,-316429.1875,-484262.375,-438336.40625,-750000.125,-0.07421875,1.01025390625,-0.0068359375,-1.9836424589157104,-0.1831054538488388,0.6713866591453552,66.66667175292969,111394.0,1.0
1950.3086697,-33115.98828125,18551.859375,-456404.6875,-442680.34375,-316267.28125,-483744.0,-437038.125,-750000.125,-0.07470703125,1.01025390625,-0.00927734375,-1.9836424589157104,-0.1831054538488388,0.7324218153953552,66.66667175292969,111395.0,1.0
1950.3193231,-40376.28125,20450.1484375,-456757.375,-442444.125,-315996.5625,-483475.21875,-436084.4375,-750000.125,-0.073974609375,1.009521484375,-0.008544921875,-2.014159917831421,-0.0915527269244194,0.7324218153953552,66.66667175292969,111396.0,1.0
1950.3224011,-32150.572265625,19942.5859375,-455860.90625,-442773.9375,-316141.03125,-483984.9375,-437326.125,-750000.125,-0.072021484375,1.00927734375,-0.00732421875,-2.105712652206421,-0.1525878757238388,0.7019042372703552,66.66667175292969,111397.0,1.0
1950.3224079,-23983.333984375,17946.931640625,-455437.125,-443047.8125,-316430.25,-484309.65625,-438397.40625,-750000.125,-0.07373046875,1.01025390625,-0.009033203125,-2.105712652206421,-0.1525878757238388,0.7324218153953552,66.66667175292969,111398.0,1.0
1950.3268168,-31041.568359375,18081.84765625,-456249.09375,-442770.1875,-316335.3125,-483860.75,-437336.9375,-750000.125,-0.072509765625,1.0087890625,-0.00927734375,-2.105712652206421,-0.2441406100988388,0.7324218153953552,66.66667175292969,111399.0,1.0
1950.3293193,-40425.546875,20163.599609375,-456815.9375,-442453.875,-316032.75,-483467.71875,-436087.375,-750000.125,-0.072265625,1.010009765625,-0.009521484375,-2.136230230331421,-0.2136230319738388,0.7019042372703552,66.66667175292969,111400.0,1.0
1950.3330781,-34409.88671875,20164.4921875,-456045.0,-442706.90625,-316099.46875,-483884.53125,-437033.3125,-750000.125,-0.072509765625,1.009521484375,-0.00927734375,-2.075195074081421,-0.3051757514476776,0.7629393935203552,66.66667175292969,111401.0,1.0
1950.3420109,-24438.056640625,18143.984375,-455399.65625,-443053.09375,-316412.5625,-484328.4375,-438384.59375,-750000.125,-0.073486328125,1.00830078125,-0.007568359375,-2.014159917831421,-0.4882812201976776,0.8850097060203552,66.66667175292969,111402.0,1.0
1950.3462401,-29177.431640625,17824.98046875,-456081.28125,-442850.5,-316388.25,-483971.09375,-437619.1875,-750000.125,-0.07373046875,1.0087890625,-0.004150390625,-1.9836424589157104,-0.3051757514476776,0.7934569716453552,66.66667175292969,111403.0,1.0
1950.3462485,-39816.86328125,19871.86328125,-456838.46875,-442479.28125,-316078.09375,-483482.28125,-436162.5,-750000.125,-0.072265625,1.01025390625,-0.0048828125,-1.9531248807907104,-0.1831054538488388,0.8239745497703552,66.66667175292969,111404.0,1.0
1950.3543249,-36376.03515625,20391.5859375,-456244.90625,-442643.25,-316067.09375,-483784.5625,-436756.15625,-750000.125,-0.074462890625,1.010009765625,-0.006103515625,-2.075195074081421,-0.2746581733226776,0.8239745497703552,66.66667175292969,111405.0,1.0
1950.356842,-25312.814453125,18497.142578125,-455426.375,-443038.6875,-316384.03125,-484315.75,-438289.9375,-750000.125,-0.07275390625,1.009521484375,-0.0107421875,-2.166747808456421,-0.3051757514476776,0.7324218153953552,66.66667175292969,111406.0,1.0
1950.3605728,-27428.453125,17820.2421875,-455935.65625,-442924.59375,-316432.6875,-484072.125,-437864.34375,-750000.125,-0.071533203125,1.010986328125,-0.01123046875,-2.105712652206421,-0.2746581733226776,0.7019042372703552,66.66667175292969,111407.0,1.0
1950.3693232,-38424.08203125,19593.361328125,-456818.1875,-442527.09375,-316136.65625,-483526.375,-436309.75,-750000.125,-0.072021484375,1.009765625,-0.009521484375,-2.105712652206421,-0.2746581733226776,0.7324218153953552,66.66667175292969,111408.0,1.0
1950.3724112,-37747.71875,20527.396484375,-456432.375,-442588.34375,-316046.25,-483694.0,-436514.3125,-750000.125,-0.07421875,1.009033203125,-0.009033203125,-2.014159917831421,-0.3662109076976776,0.7324218153953552,66.66667175292969,111409.0,1.0
1950.3724197,-26356.10546875,18827.859375,-455500.59375,-443007.75,-316346.40625,-484276.59375,-438127.21875,-750000.125,-0.072021484375,1.008544921875,-0.008544921875,-2.075195074081421,-0.3051757514476776,0.7019042372703552,66.66667175292969,111410.0,1.0
1950.3743238,-25849.705078125,17602.08984375,-455796.96875,-442990.21875,-316464.59375,-484162.40625,-438074.71875,-750000.125,-0.072265625,1.0107421875,-0.00439453125,-2.014159917831421,-0.3662109076976776,0.7324218153953552,66.66667175292969,111411.0,1.0
1950.3930781,-36981.76953125,19086.333984375,-456737.0,-442591.03125,-316200.5,-483594.3125,-436519.21875,-750000.125,-0.071533203125,1.010009765625,-0.0048828125,-2.044677495956421,-0.3662109076976776,0.7324218153953552,66.66667175292969,111412.0,1.0
1950.3961791,-39256.4609375,20487.87890625,-456589.46875,-442546.21875,-316039.03125,-483617.46875,-436318.0625,-750000.125,-0.071533203125,1.011474609375,-0.00390625,-1.9531248807907104,-0.2136230319738388,0.7019042372703552,66.66667175292969,111413.0,1.0
1950.3961874,-28276.208984375,19128.35546875,-455608.9375,-442961.0,-316302.0625,-484211.40625,-437900.90625,-750000.125,-0.0732421875,1.009521484375,-0.00439453125,-2.014159917831421,-0.3662109076976776,0.7934569716453552,66.66667175292969,111414.0,1.0
1950.3980643,-24966.630859375,17606.73828125,-455670.8125,-443045.65625,-316485.4375,-484241.28125,-438239.9375,-750000.125,-0.072021484375,1.0087890625,-0.0029296875,-2.075195074081421,-0.5187987685203552,0.7629393935203552,66.66667175292969,111415.0,1.0
1950.4005796,-35180.6640625,18706.533203125,-456624.78125,-442667.28125,-316267.90625,-483683.375,-436777.34375,-750000.125,-0.072021484375,1.0087890625,-0.00341796875,-2.044677495956421,-0.3356933295726776,0.7934569716453552,66.66667175292969,111416.0,1.0
1950.4030889,-40185.0390625,20459.537109375,-456733.15625,-442515.65625,-316042.59375,-483553.71875,-436174.5625,-750000.125,-0.07177734375,1.009033203125,-0.00244140625,-1.9836424589157104,-0.3356933295726776,0.7629393935203552,66.66667175292969,111417.0,1.0
1950.4055705,-30319.517578125,19525.6796875,-455768.625,-442899.9375,-316252.78125,-484122.0,-437625.8125,-750000.125,-0.072998046875,1.00927734375,-0.002197265625,-1.9836424589157104,-0.2441406100988388,0.7324218153953552,66.66667175292969,111418.0,1.0
1950.4124079,-24353.03125,17788.234375,-455585.25,-443089.75,-316497.78125,-484305.1875,-438353.84375,-750000.125,-0.072265625,1.0087890625,-0.006591796875,-2.014159917831421,-0.2746581733226776,0.8239745497703552,66.66667175292969,111419.0,1.0
1950.4124171,-32964.0859375,18470.9453125,-456491.84375,-442755.4375,-316338.53125,-483789.59375,-437066.3125,-750000.125,-0.072509765625,1.0087890625,-0.00830078125,-2.014159917831421,-0.2746581733226776,0.6713866591453552,66.66667175292969,111420.0,1.0
1950.4186566,-40318.703125,20342.0546875,-456849.75,-442508.3125,-316065.125,-483516.53125,-436100.34375,-750000.125,-0.072021484375,1.00830078125,-0.006591796875,-2.044677495956421,-0.3051757514476776,0.7324218153953552,66.66667175292969,111421.0,1.0
1950.4186644,-32190.537109375,19864.533203125,-455958.71875,-442834.65625,-316205.75,-484020.78125,-437326.75,-750000.125,-0.0712890625,1.0087890625,-0.0078125,-2.044677495956421,-0.2746581733226776,0.7934569716453552,66.66667175292969,111422.0,1.0
1950.4318161,-23931.65625,17903.658203125,-455525.90625,-443113.6875,-316491.96875,-484343.375,-438401.78125,-750000.125,-0.07177734375,1.010498046875,-0.002685546875,-2.044677495956421,-0.2746581733226776,0.7324218153953552,66.66667175292969,111423.0,1.0
1950.4349031,-30904.23828125,18005.76171875,-456335.84375,-442839.84375,-316399.6875,-483897.21875,-437352.3125,-750000.125,-0.071533203125,1.01123046875,-0.00439453125,-2.044677495956421,-0.2441406100988388,0.8239745497703552,66.66667175292969,111424.0,1.0
1950.4349098,-40388.53125,20054.880859375,-456908.75,-442517.53125,-316098.03125,-483501.875,-436095.34375,-750000.125,-0.07080078125,1.010009765625,-0.00732421875,-2.014159917831421,-0.2746581733226776,0.7629393935203552,66.66667175292969,111425.0,1.0
1950.4373989,-34496.69921875,20081.34375,-456145.40625,-442766.96875,-316162.59375,-483914.5,-437025.25,-750000.125,-0.071533203125,1.009033203125,-0.0068359375,-2.014159917831421,-0.1220703050494194,0.7019042372703552,66.66667175292969,111426.0,1.0
1950.4374053,-24469.88671875,18124.314453125,-455493.78125,-443117.53125,-316473.625,-484357.84375,-438378.34375,-750000.125,-0.070556640625,1.010009765625,-0.007568359375,-2.044677495956421,-0.2441406100988388,0.7934569716453552,66.66667175292969,111427.0,1.0
1950.4530703,-29117.3515625,17805.220703125,-456170.96875,-442920.3125,-316451.625,-484003.96875,-437625.375,-750000.125,-0.0712890625,1.009521484375,-0.010009765625,-2.014159917831421,-0.2136230319738388,0.7324218153953552,66.66667175292969,111428.0,1.0
1950.4735889,-39793.171875,19809.63671875,-456933.25,-442546.78125,-316144.25,-483515.5625,-436168.03125,-750000.125,-0.06982421875,1.0087890625,-0.010009765625,-2.044677495956421,-0.1525878757238388,0.8239745497703552,66.66667175292969,111429.0,1.0
1950.473598,-36481.08984375,20326.767578125,-456348.875,-442706.4375,-316131.5625,-483813.71875,-436747.21875,-750000.125,-0.072509765625,1.00830078125,-0.006591796875,-2.014159917831421,-0.2136230319738388,0.8544921278953552,66.66667175292969,111430.0,1.0
1950.4736024,-25386.84375,18473.896484375,-455524.71875,-443104.40625,-316445.375,-484344.09375,-438280.71875,-750000.125,-0.0712890625,1.009765625,-0.005126953125,-2.014159917831421,-0.1831054538488388,0.7324218153953552,66.66667175292969,111431.0,1.0
1950.4736065,-27369.443359375,17806.115234375,-456024.5,-442994.78125,-316495.0,-484104.125,-437868.5625,-750000.125,-0.072021484375,1.0087890625,-0.0078125,-2.136230230331421,-0.2441406100988388,0.7019042372703552,66.66667175292969,111432.0,1.0
1950.4755771,-38375.7109375,19547.853515625,-456909.8125,-442594.6875,-316200.03125,-483556.9375,-436313.40625,-750000.125,-0.071533203125,1.0078125,-0.006591796875,-2.227782964706421,-0.2136230319738388,0.7934569716453552,66.66667175292969,111433.0,1.0
1950.4805036,-37847.8515625,20480.994140625,-456536.8125,-442651.1875,-316108.75,-483719.125,-436500.875,-750000.125,-0.072021484375,1.00830078125,-0.006591796875,-2.075195074081421,-0.2746581733226776,0.7324218153953552,66.66667175292969,111434.0,1.0
1950.480512,-26453.73828125,18823.03125,-455600.1875,-443070.5,-316404.96875,-484299.65625,-438109.59375,-750000.125,-0.0712890625,1.008056640625,-0.006591796875,-2.044677495956421,-0.3662109076976776,0.7019042372703552,66.66667175292969,111435.0,1.0
1950.4805161,-25797.669921875,17615.052734375,-455888.625,-443059.96875,-316525.9375,-484193.53125,-438075.25,-750000.125,-0.07470703125,1.010009765625,-0.0087890625,-2.105712652206421,-0.3051757514476776,0.7934569716453552,66.66667175292969,111436.0,1.0
1950.4830711,-36880.6484375,19059.869140625,-456831.9375,-442661.03125,-316264.40625,-483626.15625,-436524.84375,-750000.125,-0.0751953125,1.010009765625,-0.009033203125,-2.075195074081421,-0.2136230319738388,0.7629393935203552,66.66667175292969,111437.0,1.0
1950.4862404,-39319.1328125,20453.099609375,-456693.1875,-442609.4375,-316100.1875,-483641.625,-436303.5625,-750000.125,-0.073486328125,1.01025390625,-0.0068359375,-2.075195074081421,-0.3356933295726776,0.7019042372703552,66.66667175292969,111438.0,1.0
1950.4862489,-28389.310546875,19127.55078125,-455713.375,-443024.46875,-316361.40625,-484235.71875,-437880.875,-750000.125,-0.074951171875,1.010009765625,-0.005859375,-2.136230230331421,-0.3051757514476776,0.6713866591453552,66.66667175292969,111439.0,1.0
1950.4968245,-24939.98828125,17625.24609375,-455764.6875,-443116.375,-316547.75,-484274.71875,-438239.6875,-750000.125,-0.07275390625,1.010009765625,-0.00341796875,-2.044677495956421,-0.3662109076976776,0.7324218153953552,66.66667175292969,111440.0,1.0
1950.5011795,-35095.01171875,18687.04296875,-456717.875,-442739.96875,-316333.15625,-483719.125,-436785.84375,-750000.125,-0.07275390625,1.00927734375,-0.00537109375,-1.9531248807907104,-0.3051757514476776,0.8239745497703552,66.66667175292969,111441.0,1.0
1950.501188,-40238.05859375,20445.677734375,-456838.03125,-442582.4375,-316105.28125,-483581.625,-436163.65625,-750000.125,-0.072265625,1.010986328125,-0.0078125,-1.8920897245407104,-0.3662109076976776,0.7629393935203552,66.66667175292969,111442.0,1.0
1950.5124095,-30443.8828125,19541.1484375,-455872.6875,-442960.8125,-316309.375,-484143.625,-437601.3125,-750000.125,-0.073486328125,1.009521484375,-0.0068359375,-1.9836424589157104,-0.3662109076976776,0.7324218153953552,66.66667175292969,111443.0,1.0
1950.5124183,-24345.69921875,17814.4296875,-455674.40625,-443153.65625,-316554.09375,-484333.90625,-438345.96875,-750000.125,-0.071533203125,1.009521484375,-0.006103515625,-2.014159917831421,-0.2441406100988388,0.6713866591453552,66.66667175292969,111444.0,1.0
1950.5149049,-32868.59765625,18481.5859375,-456578.375,-442823.125,-316399.34375,-483823.1875,-437071.40625,-750000.125,-0.07177734375,1.010009765625,-0.007080078125,-1.9836424589157104,-0.2136230319738388,0.7019042372703552,66.66667175292969,111445.0,1.0
1950.5149133,-40326.125,20346.97265625,-456948.71875,-442572.6875,-316125.84375,-483543.71875,-436090.96875,-750000.125,-0.07177734375,1.009765625,-0.01025390625,-2.044677495956421,-0.3051757514476776,0.7019042372703552,66.66667175292969,111446.0,1.0
1950.5205693,-32301.490234375,19893.857421875,-456063.84375,-442895.46875,-316262.8125,-484043.21875,-437302.875,-750000.125,-0.07177734375,1.010498046875,-0.009521484375,-2.105712652206421,-0.2746581733226776,0.7324218153953552,66.66667175292969,111447.0,1.0
1950.5274003,-23935.58984375,17936.29296875,-455620.03125,-443179.875,-316551.3125,-484376.0,-438396.5,-750000.125,-0.072021484375,1.01025390625,-0.008056640625,-2.014159917831421,-0.2746581733226776,0.6713866591453552,66.66667175292969,111448.0,1.0
1950.5274083,-30764.583984375,18024.71484375,-456423.1875,-442908.5,-316460.84375,-483935.125,-437362.875,-750000.125,-0.073486328125,1.009765625,-0.0078125,-2.044677495956421,-0.2136230319738388,0.5798339247703552,66.66667175292969,111449.0,1.0
1950.5330652,-40321.38671875,20062.123046875,-457007.53125,-442583.25,-316159.71875,-483534.25,-436092.84375,-750000.125,-0.073486328125,1.01025390625,-0.006591796875,-2.105712652206421,-0.3356933295726776,0.5493163466453552,66.66667175292969,111450.0,1.0
1950.5423911,-34569.12109375,20103.0703125,-456250.625,-442828.65625,-316221.15625,-483941.3125,-437005.6875,-750000.125,-0.0732421875,1.011962890625,-0.006591796875,-2.014159917831421,-0.3356933295726776,0.6408690810203552,66.66667175292969,111451.0,1.0
1950.5423977,-24460.140625,18148.544921875,-455589.0,-443184.0625,-316533.71875,-484393.4375,-438374.15625,-750000.125,-0.073974609375,1.010986328125,-0.0068359375,-2.014159917831421,-0.3967284858226776,0.7324218153953552,66.66667175292969,111452.0,1.0
1950.544311,-28958.564453125,17812.015625,-456255.8125,-442990.21875,-316514.65625,-484046.4375,-437639.75,-750000.125,-0.071533203125,1.010498046875,-0.007080078125,-1.9531248807907104,-0.2441406100988388,0.6713866591453552,66.66667175292969,111453.0,1.0
1950.5505742,-39665.140625,19804.98828125,-457026.5,-442614.28125,-316207.90625,-483553.625,-436174.71875,-750000.125,-0.072021484375,1.009765625,-0.007080078125,-1.9836424589157104,-0.2746581733226776,0.6713866591453552,66.66667175292969,111454.0,1.0
1950.5549116,-36491.01171875,20354.662109375,-456450.71875,-442766.4375,-316188.78125,-483841.0,-436729.59375,-750000.125,-0.072265625,1.00927734375,-0.00537109375,-2.014159917831421,-0.3662109076976776,0.7324218153953552,66.66667175292969,111455.0,1.0
1950.5549201,-25368.6953125,18491.0625,-455620.40625,-443167.0625,-316502.5,-484377.71875,-438272.40625,-750000.125,-0.073486328125,1.009765625,-0.00732421875,-2.075195074081421,-0.3356933295726776,0.7019042372703552,66.66667175292969,111456.0,1.0
1950.5630678,-27215.6640625,17775.001953125,-456110.34375,-443064.4375,-316557.59375,-484149.0,-437884.375,-750000.125,-0.073974609375,1.009765625,-0.007080078125,-1.9836424589157104,-0.4272460639476776,0.7019042372703552,66.66667175292969,111457.0,1.0
1950.5674036,-38217.73046875,19506.45703125,-457001.03125,-442664.78125,-316265.65625,-483600.75,-436328.34375,-750000.125,-0.07275390625,1.0078125,-0.005859375,-2.014159917831421,-0.3051757514476776,0.6408690810203552,66.66667175292969,111458.0,1.0
1950.5674111,-37838.82421875,20459.267578125,-456640.71875,-442715.5625,-316170.4375,-483753.8125,-436493.28125,-750000.125,-0.072998046875,1.007568359375,-0.006591796875,-2.014159917831421,-0.3051757514476776,0.6408690810203552,66.66667175292969,111459.0,1.0
1950.57557,-26450.51953125,18808.994140625,-455701.40625,-443135.78125,-316466.375,-484338.53125,-438105.5625,-750000.125,-0.07177734375,1.00830078125,-0.008056640625,-2.014159917831421,-0.3356933295726776,0.7019042372703552,66.66667175292969,111460.0,1.0
1950.5799168,-25639.419921875,17587.158203125,-455975.25,-443128.8125,-316588.875,-484241.53125,-438093.3125,-750000.125,-0.072021484375,1.009033203125,-0.0078125,-2.075195074081421,-0.2441406100988388,0.7629393935203552,66.66667175292969,111461.0,1.0
1950.5799256,-36677.6953125,19019.904296875,-456922.15625,-442730.0625,-316329.5,-483674.0625,-436545.875,-750000.125,-0.073486328125,1.008056640625,-0.00732421875,-1.9226073026657104,-0.2136230319738388,0.6713866591453552,66.66667175292969,111462.0,1.0
1950.6031109,-39263.87890625,20423.326171875,-456795.1875,-442674.625,-316163.21875,-483681.125,-436303.75,-750000.125,-0.07177734375,1.00927734375,-0.00634765625,-1.9836424589157104,-0.2441406100988388,0.6103515028953552,66.66667175292969,111463.0,1.0
1950.6074034,-28362.48828125,19118.341796875,-455811.0,-443086.59375,-316420.4375,-484274.0,-437876.59375,-750000.125,-0.072265625,1.010009765625,-0.006103515625,-2.044677495956421,-0.2441406100988388,0.7629393935203552,66.66667175292969,111464.0,1.0
1950.6074118,-24774.40625,17575.087890625,-455849.1875,-443183.15625,-316609.875,-484323.625,-438258.8125,-750000.125,-0.070556640625,1.00927734375,-0.006591796875,-2.044677495956421,-0.2441406100988388,0.7629393935203552,66.66667175292969,111465.0,1.0
1950.6093151,-34868.1875,18607.828125,-456800.21875,-442808.71875,-316398.53125,-483770.90625,-436813.8125,-750000.125,-0.073974609375,1.00830078125,-0.01025390625,-2.075195074081421,-0.3051757514476776,0.7324218153953552,66.66667175292969,111466.0,1.0
1950.6118236,-40139.53125,20386.22265625,-456933.875,-442646.375,-316168.46875,-483623.71875,-436170.34375,-750000.125,-0.0732421875,1.00927734375,-0.00732421875,-1.9836424589157104,-0.3967284858226776,0.6408690810203552,66.66667175292969,111467.0,1.0
1950.61434,-30423.5859375,19497.517578125,-455973.1875,-443024.28125,-316371.15625,-484185.375,-437601.21875,-750000.125,-0.07177734375,1.010498046875,-0.005615234375,-1.9226073026657104,-0.3356933295726776,0.7629393935203552,66.66667175292969,111468.0,1.0
1950.6168188,-24187.181640625,17733.6953125,-455761.21875,-443222.875,-316619.0,-484387.09375,-438370.125,-750000.125,-0.07275390625,1.010498046875,-0.0087890625,-1.9836424589157104,-0.2441406100988388,0.7019042372703552,66.66667175292969,111469.0,1.0
1950.6193079,-32614.68359375,18370.095703125,-456660.09375,-442894.5625,-316467.8125,-483881.3125,-437107.96875,-750000.125,-0.072509765625,1.009033203125,-0.0107421875,-2.044677495956421,-0.1831054538488388,0.6713866591453552,66.66667175292969,111470.0,1.0
1950.6218306,-40185.66796875,20244.423828125,-457042.40625,-442639.5625,-316192.09375,-483593.15625,-436108.65625,-750000.125,-0.0732421875,1.01123046875,-0.008056640625,-2.166747808456421,-0.1831054538488388,0.6713866591453552,66.66667175292969,111471.0,1.0
1950.6243401,-32264.744140625,19806.240234375,-456162.90625,-442960.09375,-316326.09375,-484089.46875,-437308.875,-750000.125,-0.07470703125,1.009033203125,-0.007080078125,-2.044677495956421,-0.2441406100988388,0.6408690810203552,66.66667175292969,111472.0,1.0
1950.6274126,-23802.552734375,17828.9140625,-455704.96875,-443246.375,-316614.71875,-484430.09375,-438419.75,-750000.125,-0.07177734375,1.0087890625,-0.009033203125,-1.9226073026657104,-0.1831054538488388,0.6713866591453552,66.66667175292969,111473.0,1.0
1950.6274212,-30533.109375,17899.27734375,-456503.03125,-442978.59375,-316529.0625,-483995.40625,-437401.9375,-750000.125,-0.072265625,1.009521484375,-0.008544921875,-1.9836424589157104,-0.2441406100988388,0.7019042372703552,66.66667175292969,111474.0,1.0
1950.6355667,-40152.5859375,19949.6484375,-457098.90625,-442651.03125,-316228.125,-483589.3125,-436121.1875,-750000.125,-0.072021484375,1.009765625,-0.010009765625,-2.075195074081421,-0.1525878757238388,0.7629393935203552,66.66667175292969,111475.0,1.0
1950.6399139,-34538.72265625,19998.912109375,-456348.71875,-442893.84375,-316286.3125,-483991.65625,-437019.1875,-750000.125,-0.072998046875,1.010009765625,-0.007080078125,-2.075195074081421,-0.2441406100988388,0.7019042372703552,66.66667175292969,111476.0,1.0
1950.6399225,-24371.986328125,18024.71484375,-455677.34375,-443251.375,-316599.5,-484450.65625,-438400.625,-750000.125,-0.072509765625,1.009033203125,-0.0107421875,-2.105712652206421,-0.2136230319738388,0.7324218153953552,66.66667175292969,111477.0,1.0
1950.648067,-28785.560546875,17634.365234375,-456335.75,-443061.3125,-316584.9375,-484112.25,-437684.375,-750000.125,-0.073974609375,1.010009765625,-0.008056640625,-2.075195074081421,-0.2441406100988388,0.6713866591453552,66.66667175292969,111478.0,1.0
1950.6523952,-39560.35546875,19648.79296875,-457110.09375,-442681.6875,-316276.03125,-483613.1875,-436210.125,-750000.125,-0.075439453125,1.0087890625,-0.008056640625,-2.075195074081421,-0.3051757514476776,0.6713866591453552,66.66667175292969,111479.0,1.0
1950.6524039,-36519.98046875,20216.796875,-456544.9375,-442831.53125,-316254.84375,-483896.0625,-436750.15625,-750000.125,-0.074951171875,1.010498046875,-0.007568359375,-1.9531248807907104,-0.3662109076976776,0.7019042372703552,66.66667175292969,111480.0,1.0
1950.6586435,-25357.33984375,18364.462890625,-455706.84375,-443233.6875,-316568.84375,-484438.3125,-438302.71875,-750000.125,-0.0732421875,1.0107421875,-0.00830078125,-1.9836424589157104,-0.2746581733226776,0.6713866591453552,66.66667175292969,111481.0,1.0
1950.6586498,-27142.349609375,17567.310546875,-456185.4375,-443133.5625,-316626.875,-484216.78125,-437933.5625,-750000.125,-0.073486328125,1.01171875,-0.008056640625,-2.105712652206421,-0.3051757514476776,0.6408690810203552,66.66667175292969,111482.0,1.0
1950.6605735,-38350.58984375,19333.8125,-457079.53125,-442732.375,-316335.03125,-483665.65625,-436373.75,-750000.125,-0.074462890625,1.010986328125,-0.005859375,-2.044677495956421,-0.2136230319738388,0.7019042372703552,66.66667175292969,111483.0,1.0
1950.6743106,-38135.1171875,20362.796875,-456729.84375,-442778.25,-316236.0625,-483810.6875,-436518.78125,-750000.125,-0.07421875,1.010498046875,-0.007568359375,-2.014159917831421,-0.3051757514476776,0.7324218153953552,66.66667175292969,111484.0,1.0
1950.6773937,-26742.076171875,18743.81640625,-455785.15625,-443198.8125,-316530.3125,-484398.625,-438134.4375,-750000.125,-0.07373046875,1.009765625,-0.0048828125,-2.075195074081421,-0.3051757514476776,0.8544921278953552,66.66667175292969,111485.0,1.0
1950.6774012,-25738.75,17601.642578125,-456050.1875,-443198.53125,-316659.3125,-484313.25,-438145.96875,-750000.125,-0.07177734375,1.01025390625,-0.005615234375,-2.075195074081421,-0.2746581733226776,0.7629393935203552,66.66667175292969,111486.0,1.0
1950.6793157,-36492.35546875,19025.716796875,-456999.84375,-442798.71875,-316400.5,-483743.4375,-436598.96875,-750000.125,-0.0732421875,1.007568359375,-0.00537109375,-2.075195074081421,-0.3356933295726776,0.7019042372703552,66.66667175292969,111487.0,1.0
1950.6855648,-39156.76953125,20366.10546875,-456884.6875,-442737.5625,-316229.71875,-483739.96875,-436334.15625,-750000.125,-0.07275390625,1.009033203125,-0.00537109375,-2.136230230331421,-0.2441406100988388,0.8239745497703552,66.66667175292969,111488.0,1.0
1950.6949053,-28311.97265625,19058.70703125,-455897.09375,-443149.625,-316485.25,-484333.90625,-437904.84375,-750000.125,-0.072021484375,1.00927734375,-0.009765625,-2.075195074081421,-0.2746581733226776,0.7629393935203552,66.66667175292969,111489.0,1.0
1950.6949142,-24600.8671875,17470.66015625,-455923.125,-443252.1875,-316679.25,-484395.125,-438311.5625,-750000.125,-0.07373046875,1.011474609375,-0.007568359375,-2.014159917831421,-0.2746581733226776,0.7629393935203552,66.66667175292969,111490.0,1.0
1950.6968157,-34686.6015625,18490.080078125,-456873.34375,-442878.90625,-316470.84375,-483844.03125,-436873.0,-750000.125,-0.072509765625,1.012451171875,-0.006103515625,-2.105712652206421,-0.3967284858226776,0.6713866591453552,66.66667175292969,111491.0,1.0
1950.7005805,-40106.80859375,20303.1640625,-457020.96875,-442713.25,-316239.125,-483689.4375,-436210.84375,-750000.125,-0.0712890625,1.0107421875,-0.005615234375,-2.136230230331421,-0.3051757514476776,0.7019042372703552,66.66667175292969,111492.0,1.0
1950.7118147,-30456.3984375,19442.44140625,-456061.4375,-443088.84375,-316437.78125,-484248.875,-437632.78125,-750000.125,-0.072509765625,1.0087890625,-0.005859375,-2.166747808456421,-0.3051757514476776,0.6713866591453552,66.66667175292969,111493.0,1.0
1950.7148932,-24115.833984375,17646.255859375,-455837.21875,-443291.875,-316689.1875,-484460.6875,-438422.78125,-750000.125,-0.07373046875,1.00927734375,-0.007568359375,-2.075195074081421,-0.2746581733226776,0.7019042372703552,66.66667175292969,111494.0,1.0
1950.7149013,-32649.462890625,18199.775390625,-456732.15625,-442964.75,-316540.15625,-483957.03125,-437169.84375,-750000.125,-0.072265625,1.0087890625,-0.009521484375,-1.9226073026657104,-0.2136230319738388,0.6408690810203552,66.66667175292969,111495.0,1.0
1950.7168181,-40434.57421875,20194.890625,-457127.25,-442706.4375,-316262.96875,-483660.21875,-436153.0,-750000.125,-0.071044921875,1.00927734375,-0.007080078125,-1.9836424589157104,-0.2441406100988388,0.7019042372703552,66.66667175292969,111496.0,1.0
1950.7205633,-32609.23046875,19801.412109375,-456251.96875,-443022.25,-316392.53125,-484150.96875,-437338.375,-750000.125,-0.0712890625,1.009033203125,-0.005615234375,-2.014159917831421,-0.2441406100988388,0.6713866591453552,66.66667175292969,111497.0,1.0
1950.7273974,-24017.30859375,17875.31640625,-455780.6875,-443312.375,-316683.71875,-484501.4375,-438468.375,-750000.125,-0.072265625,1.007568359375,-0.005615234375,-2.014159917831421,-0.3662109076976776,0.6103515028953552,66.66667175292969,111498.0,1.0
1950.727406,-30452.107421875,18030.6171875,-456573.28125,-443048.0625,-316601.65625,-484071.21875,-437465.5,-750000.125,-0.07275390625,1.010009765625,-0.006591796875,-2.014159917831421,-0.2746581733226776,0.6713866591453552,66.66667175292969,111499.0,1.0
1950.7405683,-39978.69140625,19970.48046875,-457184.46875,-442717.71875,-316298.75,-483655.75,-436167.125,-750000.125,-0.072998046875,1.0087890625,-0.009033203125,-2.014159917831421,-0.2746581733226776,0.6103515028953552,66.66667175292969,111500.0,1.0
1950.7448951,-34487.22265625,20014.021484375,-456438.65625,-442957.15625,-316353.28125,-484052.71875,-437048.34375,-750000.125,-0.071533203125,1.0087890625,-0.00732421875,-1.9836424589157104,-0.2136230319738388,0.5798339247703552,66.66667175292969,111501.0,1.0
1950.7449039,-24241.8984375,18027.93359375,-455753.34375,-443316.65625,-316666.375,-484518.34375,-438444.59375,-750000.125,-0.07275390625,1.008056640625,-0.006103515625,-1.9836424589157104,-0.2441406100988388,0.5187987685203552,66.66667175292969,111502.0,1.0
1950.7517429,-28537.45703125,17610.314453125,-456403.6875,-443130.5,-316655.5625,-484186.5625,-437746.0625,-750000.125,-0.074462890625,1.010009765625,-0.006591796875,-2.044677495956421,-0.3051757514476776,0.7019042372703552,66.66667175292969,111503.0,1.0
1950.7517514,-39364.640625,19625.189453125,-457188.15625,-442750.15625,-316347.5625,-483682.21875,-436262.4375,-750000.125,-0.07373046875,1.0078125,-0.008056640625,-2.044677495956421,-0.2746581733226776,0.6103515028953552,66.66667175292969,111504.0,1.0
1950.7517556,-36467.41015625,20225.37890625,-456633.5625,-442894.125,-316321.1875,-483955.15625,-436779.21875,-750000.125,-0.0732421875,1.00732421875,-0.0048828125,-2.075195074081421,-0.3356933295726776,0.5798339247703552,66.66667175292969,111505.0,1.0
1950.7568335,-25265.25,18378.3203125,-455788.46875,-443299.40625,-316636.34375,-484504.21875,-438341.0625,-750000.125,-0.07275390625,1.009521484375,-0.002197265625,-2.014159917831421,-0.4272460639476776,0.5798339247703552,66.66667175292969,111506.0,1.0
1950.7605642,-26917.044921875,17546.56640625,-456255.1875,-443202.75,-316697.3125,-484290.4375,-437992.03125,-750000.125,-0.072265625,1.009765625,-0.005615234375,-1.9531248807907104,-0.2136230319738388,0.6408690810203552,66.66667175292969,111507.0,1.0
1950.7698926,-38132.8828125,19309.046875,-457155.0625,-442801.84375,-316406.5625,-483735.9375,-436428.75,-750000.125,-0.07177734375,1.009521484375,-0.00341796875,-2.044677495956421,-0.2746581733226776,0.7019042372703552,66.66667175292969,111508.0,1.0
1950.7699009,-38073.515625,20367.357421875,-456819.34375,-442842.625,-316303.75,-483871.125,-436550.0625,-750000.125,-0.070068359375,1.01025390625,-0.00537109375,-2.044677495956421,-0.3051757514476776,0.7629393935203552,66.66667175292969,111509.0,1.0
1950.7761749,-26679.22265625,18752.7578125,-455871.0,-443263.71875,-316597.46875,-484462.0,-438168.59375,-750000.125,-0.07080078125,1.00830078125,-0.006591796875,-1.9836424589157104,-0.4272460639476776,0.7629393935203552,66.66667175292969,111510.0,1.0
1950.7761833,-25566.642578125,17514.291015625,-456121.625,-443266.59375,-316728.625,-484383.78125,-438200.34375,-750000.125,-0.07275390625,1.0087890625,-0.007568359375,-2.014159917831421,-0.2441406100988388,0.7324218153953552,66.66667175292969,111511.0,1.0
1950.7874024,-36471.34375,18931.83984375,-457073.15625,-442867.5625,-316471.40625,-483812.46875,-436655.125,-750000.125,-0.06884765625,1.010986328125,-0.007080078125,-2.014159917831421,-0.3051757514476776,0.7934569716453552,66.66667175292969,111512.0,1.0
1950.7874109,-39324.765625,20366.462890625,-456974.65625,-442802.03125,-316297.6875,-483800.5,-436367.9375,-750000.125,-0.068603515625,1.009033203125,-0.007080078125,-1.9836424589157104,-0.3051757514476776,0.7019042372703552,66.66667175292969,111513.0,1.0
1950.7961699,-28538.171875,19075.78515625,-455983.75,-443212.5,-316550.59375,-484394.59375,-437934.34375,-750000.125,-0.069580078125,1.009033203125,-0.006103515625,-2.014159917831421,-0.2746581733226776,0.7324218153953552,66.66667175292969,111514.0,1.0
1950.7961758,-24630.728515625,17559.798828125,-455996.34375,-443320.6875,-316749.625,-484466.65625,-438364.65625,-750000.125,-0.071044921875,1.00830078125,-0.00341796875,-1.9836424589157104,-0.2136230319738388,0.7934569716453552,66.66667175292969,111515.0,1.0
1950.8142761,-34384.046875,18592.62890625,-456944.6875,-442949.1875,-316543.375,-483916.71875,-436933.8125,-750000.125,-0.072265625,1.00830078125,-0.0068359375,-1.9531248807907104,-0.2746581733226776,0.8239745497703552,66.66667175292969,111516.0,1.0
1950.8142851,-39846.7265625,20296.7265625,-457106.15625,-442777.0,-316306.875,-483750.875,-436246.78125,-750000.125,-0.072509765625,1.0087890625,-0.0087890625,-1.9836424589157104,-0.1831054538488388,0.7324218153953552,66.66667175292969,111517.0,1.0
1950.8142892,-30283.0390625,19446.197265625,-456150.125,-443150.28125,-316503.3125,-484308.15625,-437659.25,-750000.125,-0.072265625,1.0107421875,-0.007080078125,-1.9836424589157104,-0.2136230319738388,0.7019042372703552,66.66667175292969,111518.0,1.0
1950.8173923,-23796.294921875,17616.572265625,-455910.53125,-443358.21875,-316757.40625,-484529.6875,-438473.375,-750000.125,-0.072998046875,1.008544921875,-0.0048828125,-2.014159917831421,-0.4272460639476776,0.7019042372703552,66.66667175292969,111519.0,1.0
1950.8173992,-32255.447265625,18123.509765625,-456801.375,-443034.84375,-316612.21875,-484031.4375,-437234.125,-750000.125,-0.07275390625,1.009521484375,-0.00634765625,-1.9531248807907104,-0.3051757514476776,0.7019042372703552,66.66667175292969,111520.0,1.0
1950.819906,-40185.30859375,20150.90234375,-457208.1875,-442771.0,-316331.1875,-483725.125,-436196.0,-750000.125,-0.073974609375,1.00927734375,-0.00439453125,-1.9836424589157104,-0.3662109076976776,0.6408690810203552,66.66667175292969,111521.0,1.0
1950.8199145,-32472.794921875,19781.919921875,-456337.25,-443081.5,-316455.21875,-484209.8125,-437365.0,-750000.125,-0.072998046875,1.008056640625,-0.00341796875,-2.105712652206421,-0.3051757514476776,0.7019042372703552,66.66667175292969,111522.0,1.0
1950.8280628,-23775.640625,17807.45703125,-455852.75,-443375.9375,-316748.90625,-484569.84375,-438515.59375,-750000.125,-0.074951171875,1.008056640625,-0.004638671875,-2.044677495956421,-0.1831054538488388,0.6103515028953552,66.66667175292969,111523.0,1.0
1950.8323922,-30246.0234375,17839.912109375,-456638.75,-443116.1875,-316671.21875,-484146.59375,-437530.3125,-750000.125,-0.07275390625,1.01025390625,-0.00390625,-2.014159917831421,-0.2441406100988388,0.7324218153953552,66.66667175292969,111524.0,1.0
1950.8324005,-39992.7265625,19898.328125,-457262.09375,-442783.0625,-316367.6875,-483724.84375,-436219.53125,-750000.125,-0.07275390625,1.008544921875,-0.004638671875,-1.9226073026657104,-0.2746581733226776,0.7934569716453552,66.66667175292969,111525.0,1.0
1950.838647,-34656.11328125,19995.15625,-456526.96875,-443017.9375,-316417.46875,-484114.59375,-437079.71875,-750000.125,-0.073486328125,1.0078125,-0.005615234375,-1.8920897245407104,-0.3356933295726776,0.7629393935203552,66.66667175292969,111526.0,1.0
1950.8386555,-24343.28515625,18028.29296875,-455829.875,-443381.21875,-316733.09375,-484589.0625,-438490.375,-750000.125,-0.072509765625,1.010009765625,-0.007080078125,-1.9531248807907104,-0.2746581733226776,0.6103515028953552,66.66667175292969,111527.0,1.0
1950.8493277,-28450.822265625,17613.98046875,-456469.5,-443198.625,-316725.84375,-484263.34375,-437811.40625,-750000.125,-0.070068359375,1.009765625,-0.005615234375,-1.9836424589157104,-0.3051757514476776,0.7019042372703552,66.66667175292969,111528.0,1.0
1950.8523929,-39290.078125,19588.80078125,-457263.53125,-442817.59375,-316418.8125,-483755.25,-436320.09375,-750000.125,-0.0712890625,1.01025390625,-0.005615234375,-2.075195074081421,-0.2136230319738388,0.6713866591453552,66.66667175292969,111529.0,1.0
1950.8524007,-36542.51171875,20214.830078125,-456721.1875,-442957.59375,-316389.3125,-484022.21875,-436816.0625,-750000.125,-0.0703125,1.009765625,-0.00439453125,-2.044677495956421,-0.2746581733226776,0.6103515028953552,66.66667175292969,111530.0,1.0
1950.8580646,-25301.013671875,18375.638671875,-455867.6875,-443363.5,-316704.28125,-484575.75,-438386.46875,-750000.125,-0.072509765625,1.009765625,-0.0087890625,-1.9836424589157104,-0.3051757514476776,0.6713866591453552,66.66667175292969,111531.0,1.0
1950.8623956,-26705.150390625,17604.861328125,-456321.78125,-443272.65625,-316769.125,-484370.28125,-438061.5,-750000.125,-0.072509765625,1.008544921875,-0.01123046875,-1.9226073026657104,-0.2746581733226776,0.6408690810203552,66.66667175292969,111532.0,1.0
1950.8624036,-37734.39453125,19299.30078125,-457225.15625,-442869.15625,-316478.46875,-483811.3125,-436493.65625,-750000.125,-0.073974609375,1.00927734375,-0.0087890625,-2.044677495956421,-0.3051757514476776,0.7324218153953552,66.66667175292969,111533.0,1.0
1950.873064,-37813.25390625,20330.431640625,-456903.90625,-442904.5,-316370.8125,-483938.1875,-436590.46875,-750000.125,-0.074951171875,1.0107421875,-0.007568359375,-1.9836424589157104,-0.2136230319738388,0.7324218153953552,66.66667175292969,111534.0,1.0
1950.8761749,-26425.57421875,18723.251953125,-455953.0,-443328.0,-316664.875,-484533.625,-438212.78125,-750000.125,-0.07470703125,1.011962890625,-0.008056640625,-2.014159917831421,-0.3662109076976776,0.7019042372703552,66.66667175292969,111535.0,1.0
1950.8761837,-25165.740234375,17407.361328125,-456189.03125,-443337.3125,-316801.46875,-484466.65625,-438272.59375,-750000.125,-0.07373046875,1.00927734375,-0.009033203125,-2.014159917831421,-0.3356933295726776,0.7019042372703552,66.66667175292969,111536.0,1.0
1950.8780554,-36104.86328125,18803.986328125,-457144.96875,-442941.5,-316549.34375,-483898.46875,-436733.4375,-750000.125,-0.072998046875,1.0078125,-0.0068359375,-2.044677495956421,-0.3662109076976776,0.6408690810203552,66.66667175292969,111537.0,1.0
1950.8868115,-39132.6328125,20308.974609375,-457064.0625,-442868.90625,-316370.28125,-483874.625,-436418.375,-750000.125,-0.072509765625,1.0078125,-0.007568359375,-2.044677495956421,-0.2746581733226776,0.6408690810203552,66.66667175292969,111538.0,1.0
1950.8899022,-28414.1640625,19022.23046875,-456070.28125,-443277.9375,-316620.96875,-484468.1875,-437979.9375,-750000.125,-0.072509765625,1.007080078125,-0.004638671875,-1.9836424589157104,-0.2441406100988388,0.6713866591453552,66.66667175292969,111539.0,1.0
1950.8899108,-24382.982421875,17399.58203125,-456065.09375,-443391.03125,-316822.3125,-484549.375,-438435.5625,-750000.125,-0.073486328125,1.0078125,-0.0078125,-1.9836424589157104,-0.3051757514476776,0.7324218153953552,66.66667175292969,111540.0,1.0
1950.8930555,-34288.828125,18372.150390625,-457011.65625,-443022.40625,-316620.0,-484002.5625,-437014.0,-750000.125,-0.07373046875,1.009521484375,-0.006103515625,-2.014159917831421,-0.2441406100988388,0.6713866591453552,66.66667175292969,111541.0,1.0
1950.9073956,-39997.375,20214.3828125,-457188.0625,-442843.96875,-316380.03125,-483826.0625,-436302.125,-750000.125,-0.0732421875,1.00927734375,-0.006103515625,-1.9836424589157104,-0.2746581733226776,0.7019042372703552,66.66667175292969,111542.0,1.0
1950.9074042,-30530.96484375,19388.88671875,-456236.40625,-443214.8125,-316572.78125,-484380.84375,-437703.40625,-750000.125,-0.072509765625,1.0087890625,-0.006591796875,-2.075195074081421,-0.2441406100988388,0.6713866591453552,66.66667175292969,111543.0,1.0
1950.9093152,-23900.453125,17543.34765625,-455981.25,-443427.6875,-316829.8125,-484612.03125,-438540.0,-750000.125,-0.072509765625,1.009521484375,-0.0048828125,-1.9531248807907104,-0.2136230319738388,0.7629393935203552,66.66667175292969,111544.0,1.0
1950.9145497,-32217.26953125,18048.05078125,-456863.875,-443104.75,-316686.15625,-484114.125,-437311.375,-750000.125,-0.074462890625,1.009033203125,-0.009033203125,-1.9531248807907104,-0.2746581733226776,0.7324218153953552,66.66667175292969,111545.0,1.0
1950.9193313,-40246.28515625,20064.267578125,-457286.40625,-442838.25,-316404.78125,-483801.21875,-436255.03125,-750000.125,-0.07373046875,1.010498046875,-0.005126953125,-1.9531248807907104,-0.2136230319738388,0.7324218153953552,66.66667175292969,111546.0,1.0
1950.9218096,-32654.291015625,19723.537109375,-456425.25,-443147.40625,-316526.90625,-484282.9375,-437410.15625,-750000.125,-0.072509765625,1.0107421875,-0.009033203125,-2.044677495956421,-0.1831054538488388,0.7629393935203552,66.66667175292969,111547.0,1.0
1950.9255628,-23849.22265625,17771.068359375,-455927.875,-443445.40625,-316822.03125,-484650.3125,-438578.8125,-750000.125,-0.0732421875,1.010498046875,-0.010009765625,-2.014159917831421,-0.2441406100988388,0.7019042372703552,66.66667175292969,111548.0,1.0
1950.929319,-30035.73828125,17881.216796875,-456705.34375,-443188.8125,-316747.65625,-484231.6875,-437608.65625,-750000.125,-0.072509765625,1.010986328125,-0.00732421875,-2.014159917831421,-0.1831054538488388,0.7019042372703552,66.66667175292969,111549.0,1.0
1950.9492739,-39687.4921875,19846.650390625,-457338.96875,-442851.28125,-316442.0625,-483802.28125,-436283.09375,-750000.125,-0.072021484375,1.01171875,-0.0078125,-2.136230230331421,-0.2136230319738388,0.7629393935203552,66.66667175292969,111550.0,1.0
1950.9492826,-34472.73828125,19946.697265625,-456614.78125,-443082.0625,-316487.75,-484185.5625,-437125.03125,-750000.125,-0.07275390625,1.010986328125,-0.005126953125,-2.014159917831421,-0.2136230319738388,0.8239745497703552,66.66667175292969,111551.0,1.0
1950.9492868,-24105.8203125,17945.322265625,-455902.84375,-443447.625,-316802.65625,-484665.15625,-438548.59375,-750000.125,-0.072021484375,1.009521484375,-0.00634765625,-1.9531248807907104,-0.3051757514476776,0.8239745497703552,66.66667175292969,111552.0,1.0
1950.9518078,-28096.234375,17465.474609375,-456533.6875,-443271.15625,-316801.125,-484349.0,-437891.96875,-750000.125,-0.070068359375,1.0087890625,-0.0068359375,-2.075195074081421,-0.3662109076976776,0.7324218153953552,66.66667175292969,111553.0,1.0
1950.9543079,-39029.27734375,19456.12109375,-457336.75,-442888.40625,-316494.90625,-483836.96875,-436392.71875,-750000.125,-0.071044921875,1.00830078125,-0.00927734375,-2.014159917831421,-0.3662109076976776,0.7019042372703552,66.66667175292969,111554.0,1.0
1950.9574024,-36443.8046875,20126.2265625,-456804.9375,-443021.625,-316459.6875,-484094.28125,-436864.59375,-750000.125,-0.072998046875,1.00927734375,-0.00634765625,-2.014159917831421,-0.2746581733226776,0.6713866591453552,66.66667175292969,111555.0,1.0
1950.9574104,-25166.9921875,18285.78515625,-455942.4375,-443427.96875,-316772.5,-484650.125,-438440.40625,-750000.125,-0.07177734375,1.009033203125,-0.009033203125,-1.9531248807907104,-0.2746581733226776,0.7324218153953552,66.66667175292969,111556.0,1.0
1950.9593214,-26519.36328125,17381.611328125,-456388.125,-443342.75,-316842.78125,-484454.0625,-438136.59375,-750000.125,-0.070556640625,1.0107421875,-0.007080078125,-2.014159917831421,-0.3051757514476776,0.7019042372703552,66.66667175292969,111557.0,1.0
1950.9680732,-37768.99609375,19111.279296875,-457297.125,-442939.8125,-316554.375,-483894.0,-436567.6875,-750000.125,-0.069091796875,1.009521484375,-0.006103515625,-2.014159917831421,-0.2441406100988388,0.6713866591453552,66.66667175292969,111558.0,1.0
1950.9711675,-38033.37109375,20230.564453125,-456986.0,-442967.6875,-316440.53125,-484009.96875,-436639.84375,-750000.125,-0.069580078125,1.009521484375,-0.008056640625,-2.044677495956421,-0.3051757514476776,0.6103515028953552,66.66667175292969,111559.0,1.0
1950.9711738,-26663.75390625,18647.8828125,-456031.40625,-443390.78125,-316733.53125,-484606.9375,-438261.9375,-750000.125,-0.071044921875,1.0107421875,-0.0078125,-1.9836424589157104,-0.1831054538488388,0.6408690810203552,66.66667175292969,111560.0,1.0
