Time,FZ,C3,CZ,C4,PZ,PO7,OZ,PO8,AccX,AccY,AccZ,Gyro1,Gyro2,Gyro3,Battery,Counter,Validation
97.8044316,78363.34375,78458.0234375,79056.78125,78635.140625,78578.546875,78657.671875,78839.34375,78949.5859375,0.0703125,1.006591796875,0.1005859375,-1.9836424589157104,-0.1220703050494194,0.7324218153953552,66.66667175292969,1058.0,1.0
97.8075137,79555.765625,79650.7109375,80249.828125,79827.5625,79770.7890625,79850.5390625,80032.03125,80142.5390625,0.069091796875,1.00439453125,0.101318359375,-1.9226073026657104,-0.1525878757238388,0.6408690810203552,66.66667175292969,1059.0,1.0
97.8075214,79572.5703125,79667.609375,80266.640625,79844.3671875,79787.7734375,79867.34375,80048.75,80159.4375,0.069580078125,1.004638671875,0.105224609375,-1.8920897245407104,-0.1525878757238388,0.6103515028953552,66.66667175292969,1060.0,1.0
97.8094322,78505.859375,78600.71875,79199.03125,78777.1171875,78720.8828125,78800.09375,78981.59375,79091.7421875,0.0703125,1.00634765625,0.099609375,-1.8920897245407104,-0.1831054538488388,0.6713866591453552,66.66667175292969,1061.0,1.0
97.8181764,78464.1015625,78558.6953125,79157.1875,78735.2734375,78679.125,78758.4296875,78939.9296875,79049.984375,0.06884765625,1.005859375,0.0986328125,-1.9531248807907104,-0.0915527269244194,0.6713866591453552,66.66667175292969,1062.0,1.0
97.823843,79652.59375,79747.8125,80347.015625,79924.7421875,79867.8828125,79947.8125,80129.484375,80239.640625,0.07080078125,1.004638671875,0.09521484375,-1.9226073026657104,-0.0915527269244194,0.6103515028953552,66.66667175292969,1063.0,1.0
97.82385,79952.28125,80047.6796875,80646.796875,80224.3515625,80167.125,80247.5078125,80429.359375,80539.5078125,0.069091796875,1.00537109375,0.09765625,-1.9531248807907104,-0.1831054538488388,0.6408690810203552,66.66667175292969,1064.0,1.0
97.831933,78932.953125,79028.171875,79626.75,79204.84375,79147.796875,79227.1953125,79409.40625,79519.28125,0.0693359375,1.00439453125,0.098876953125,-1.9531248807907104,-0.1525878757238388,0.7019042372703552,66.66667175292969,1065.0,1.0
97.8350184,78607.421875,78702.4609375,79300.953125,78879.1328125,78822.4453125,78901.3046875,79083.515625,79193.6640625,0.068359375,1.005859375,0.1015625,-1.8310545682907104,-0.1525878757238388,0.6713866591453552,66.66667175292969,1066.0,1.0
97.8350242,79716.6953125,79811.9140625,80410.8515625,79988.4921875,79931.8125,80011.46875,80193.234375,80303.4765625,0.0703125,1.00634765625,0.10302734375,-1.8310545682907104,-0.0915527269244194,0.6713866591453552,66.66667175292969,1067.0,1.0
97.8369309,80282.28125,80377.7734375,80976.7109375,80554.6171875,80498.0234375,80577.5078125,80759.2734375,80869.6015625,0.06884765625,1.00537109375,0.102294921875,-1.8615721464157104,-0.1220703050494194,0.6408690810203552,66.66667175292969,1068.0,1.0
97.8481796,79384.7265625,79480.2109375,80078.6171875,79657.2421875,79600.2890625,79679.59375,79861.625,79971.5078125,0.069091796875,1.00537109375,0.10302734375,-1.8920897245407104,-0.1220703050494194,0.6713866591453552,66.66667175292969,1069.0,1.0
97.8512624,78801.796875,78896.4765625,79495.234375,79073.859375,79017.0,79095.9453125,79277.8828125,79387.9453125,0.0693359375,1.00634765625,0.099853515625,-1.8615721464157104,-0.1220703050494194,0.6103515028953552,66.66667175292969,1070.0,1.0
97.8512694,79760.6875,79855.90625,80454.6640625,80032.8359375,79976.15625,80055.640625,80237.3125,80347.5546875,0.070068359375,1.00634765625,0.103759765625,-1.7700194120407104,-0.03051757626235485,0.5493163466453552,66.66667175292969,1071.0,1.0
97.8531776,80565.171875,80660.4765625,81259.859375,80837.59375,80780.4609375,80860.8359375,81042.515625,81152.390625,0.0693359375,1.00537109375,0.101318359375,-1.7700194120407104,-0.1831054538488388,0.6713866591453552,66.66667175292969,1072.0,1.0
97.8619283,79847.2265625,79942.4453125,80541.65625,80119.5625,80062.25,80142.5390625,80324.0390625,80434.09375,0.0703125,1.0068359375,0.10107421875,-1.8615721464157104,-0.1220703050494194,0.7324218153953552,66.66667175292969,1073.0,1.0
97.8662741,79047.9296875,79142.96875,79741.5546875,79320.0,79263.1328125,79342.796875,79524.203125,79634.265625,0.070556640625,1.00439453125,0.104248046875,-1.8615721464157104,-0.2136230319738388,0.7324218153953552,66.66667175292969,1074.0,1.0
97.8662811,79794.9296875,79890.4140625,80489.2578125,80067.796875,80010.578125,80090.328125,80272.0,80381.703125,0.0693359375,1.005615234375,0.10302734375,-1.8920897245407104,-0.1831054538488388,0.7019042372703552,66.66667175292969,1075.0,1.0
97.8794327,80792.6171875,80888.1953125,81487.671875,81065.3984375,81008.1796875,81088.46875,81269.9609375,81379.84375,0.067138671875,1.005615234375,0.098876953125,-1.8615721464157104,-0.1525878757238388,0.6408690810203552,66.66667175292969,1076.0,1.0
97.8825063,80303.4765625,80398.6953125,80998.4375,80575.984375,80519.125,80599.0546875,80780.546875,80890.609375,0.068115234375,1.0029296875,0.099609375,-1.9226073026657104,-0.1220703050494194,0.6713866591453552,66.66667175292969,1077.0,1.0
97.8825119,79348.9609375,79443.734375,80043.2109375,79621.1171875,79564.2578125,79643.7421875,79825.7734375,79935.8359375,0.069580078125,1.00439453125,0.1005859375,-1.8615721464157104,-0.1220703050494194,0.6713866591453552,66.66667175292969,1078.0,1.0
97.9012336,79840.6171875,79935.7421875,80535.0390625,80113.0390625,80055.90625,80135.75,80317.5078125,80427.65625,0.0693359375,1.004638671875,0.101318359375,-1.8920897245407104,-0.0915527269244194,0.7324218153953552,66.66667175292969,1079.0,1.0
97.9012414,80970.0,81065.3984375,81664.875,81242.875,81185.4765625,81265.4921875,81447.703125,81557.5859375,0.067626953125,1.0068359375,0.1005859375,-1.9226073026657104,-0.2136230319738388,0.6713866591453552,66.66667175292969,1080.0,1.0
97.9030331,80742.7265625,80837.859375,81437.515625,81015.3359375,80958.0234375,81038.1328125,81220.34375,81329.6875,0.067138671875,1.005859375,0.101806640625,-1.8615721464157104,-0.1831054538488388,0.6103515028953552,66.66667175292969,1081.0,1.0
97.9106273,79693.8046875,79788.9375,80387.9609375,79966.140625,79909.1875,79988.671875,80170.703125,80280.5,0.069580078125,1.006591796875,0.10009765625,-1.8310545682907104,-0.1831054538488388,0.6713866591453552,66.66667175292969,1082.0,1.0
97.9106341,79904.6328125,80000.296875,80598.9609375,80177.140625,80119.921875,80199.4921875,80381.6171875,80491.671875,0.068115234375,1.006591796875,0.09912109375,-1.8310545682907104,-0.1831054538488388,0.7019042372703552,66.66667175292969,1083.0,1.0
97.9106365,81098.75,81194.328125,81793.890625,81371.4375,81314.3125,81394.4140625,81576.1796875,81686.6015625,0.069091796875,1.005615234375,0.098876953125,-1.8920897245407104,-0.1220703050494194,0.6408690810203552,66.66667175292969,1084.0,1.0
97.9138458,81150.6015625,81246.0,81845.921875,81423.1171875,81366.2578125,81446.2734375,81628.125,81738.2734375,0.069091796875,1.005859375,0.1015625,-1.8615721464157104,-0.2441406100988388,0.6103515028953552,66.66667175292969,1085.0,1.0
97.9138534,80086.6640625,80181.7890625,80780.90625,80358.8203125,80302.046875,80381.171875,80563.3828125,80673.53125,0.069091796875,1.005615234375,0.101318359375,-1.8615721464157104,-0.1831054538488388,0.7019042372703552,66.66667175292969,1086.0,1.0
97.916264,80006.734375,80101.6796875,80700.890625,80278.890625,80221.3984375,80301.1484375,80483.09375,80593.0625,0.068359375,1.006103515625,0.102294921875,-1.8920897245407104,-0.1831054538488388,0.5187987685203552,66.66667175292969,1087.0,1.0
97.9162713,81186.28125,81281.5,81881.6875,81459.0625,81401.3046875,81482.0390625,81663.7109375,81773.859375,0.067626953125,1.00537109375,0.099365234375,-1.8615721464157104,-0.0610351525247097,0.6103515028953552,66.66667175292969,1088.0,1.0
97.9181869,81520.484375,81615.875,82216.25,81793.171875,81735.6875,81816.421875,81997.9140625,82108.3359375,0.068603515625,1.00634765625,0.0986328125,-1.8310545682907104,-0.0915527269244194,0.5493163466453552,66.66667175292969,1089.0,1.0
97.9319321,80514.1171875,80609.2421875,81209.1640625,80786.5390625,80729.0546875,80809.3359375,80990.921875,81101.5234375,0.069091796875,1.00390625,0.100341796875,-1.8920897245407104,-0.1525878757238388,0.6103515028953552,66.66667175292969,1090.0,1.0
97.9393589,80151.2109375,80246.25,80845.4609375,80423.640625,80366.4140625,80446.2578125,80628.0234375,80738.4375,0.0712890625,1.00341796875,0.103515625,-1.8615721464157104,-0.1525878757238388,0.6103515028953552,66.66667175292969,1091.0,1.0
97.9393646,81241.890625,81337.2890625,81936.8515625,81514.3984375,81457.5390625,81537.46875,81719.234375,81829.828125,0.070068359375,1.00537109375,0.102783203125,-1.8920897245407104,-0.2746581733226776,0.7019042372703552,66.66667175292969,1092.0,1.0
97.9393664,81840.3828125,81936.046875,82535.875,82113.1640625,82056.2109375,82136.671875,82318.6171875,82428.5859375,0.068115234375,1.004150390625,0.1025390625,-1.9531248807907104,-0.1831054538488388,0.6408690810203552,66.66667175292969,1093.0,1.0
97.9419335,80961.328125,81057.171875,81656.46875,81234.203125,81176.9765625,81257.625,81438.9453125,81549.453125,0.069580078125,1.00341796875,0.098876953125,-1.8615721464157104,-0.2136230319738388,0.7324218153953552,66.66667175292969,1094.0,1.0
97.9456856,80347.375,80443.125,81041.8828125,80619.8828125,80562.7578125,80643.21875,80824.4453125,80935.046875,0.070556640625,1.00439453125,0.1005859375,-1.9226073026657104,-0.1525878757238388,0.7324218153953552,66.66667175292969,1095.0,1.0
97.9494298,81279.9765625,81375.4609375,81974.7578125,81552.671875,81495.1796875,81575.734375,81757.5859375,81868.0078125,0.06787109375,1.0048828125,0.09912109375,-1.9836424589157104,-0.0915527269244194,0.7019042372703552,66.66667175292969,1096.0,1.0
97.9638423,82112.8046875,82208.375,82808.296875,82385.9375,82328.359375,82409.1875,82591.1328125,82701.546875,0.06982421875,1.00537109375,0.10009765625,-1.8920897245407104,-0.0610351525247097,0.7629393935203552,66.66667175292969,1097.0,1.0
97.9638497,81421.6875,81517.3515625,82117.09375,81694.6484375,81637.15625,81718.25,81899.7421875,82009.984375,0.068115234375,1.006103515625,0.100341796875,-1.7395018339157104,-0.2136230319738388,0.7324218153953552,66.66667175292969,1098.0,1.0
97.9662653,80596.1953125,80691.6796875,81291.2421875,80868.5234375,80811.484375,80892.1328125,81073.71875,81183.6875,0.068359375,1.005126953125,0.099609375,-1.6784666776657104,-0.1220703050494194,0.6713866591453552,66.66667175292969,1099.0,1.0
97.966273,81308.3203125,81403.8984375,82003.90625,81581.0078125,81523.8828125,81604.96875,81786.375,81896.171875,0.069580078125,1.004150390625,0.102294921875,-1.8005369901657104,-0.0915527269244194,0.7019042372703552,66.66667175292969,1100.0,1.0
97.9775177,82325.3203125,82421.078125,83021.359375,82598.28125,82541.0625,82622.421875,82803.7421875,82913.890625,0.0693359375,1.0048828125,0.101318359375,-1.8005369901657104,-0.1525878757238388,0.6713866591453552,66.66667175292969,1101.0,1.0
97.9775245,81870.421875,81966.0,82565.7421875,82143.203125,82085.7109375,82167.1640625,82348.390625,82458.359375,0.070068359375,1.003662109375,0.102294921875,-1.9226073026657104,-0.1831054538488388,0.7629393935203552,66.66667175292969,1102.0,1.0
97.9912636,80896.6015625,80992.0,81591.46875,81169.2890625,81111.984375,81192.625,81374.390625,81484.2734375,0.071533203125,1.00537109375,0.10009765625,-1.8920897245407104,-0.1220703050494194,0.6713866591453552,66.66667175292969,1103.0,1.0
97.9912701,81348.640625,81444.484375,82043.9609375,81621.5078125,81564.2890625,81645.0234375,81826.609375,81936.7578125,0.070556640625,1.004150390625,0.101318359375,-1.8310545682907104,-0.0915527269244194,0.8239745497703552,66.66667175292969,1104.0,1.0
97.998108,82490.28125,82586.03125,83185.953125,82763.1484375,82705.9296875,82787.0234375,82968.609375,83078.484375,0.06884765625,1.004150390625,0.1025390625,-1.8615721464157104,-0.03051757626235485,0.6103515028953552,66.66667175292969,1105.0,1.0
97.9981143,82300.0234375,82395.328125,82995.0703125,82572.53125,82515.2265625,82595.78125,82777.546875,82888.046875,0.06982421875,1.003173828125,0.103515625,-1.8615721464157104,-0.1220703050494194,0.6103515028953552,66.66667175292969,1106.0,1.0
97.9981161,81243.140625,81338.5390625,81937.8359375,81515.5625,81458.5234375,81538.9921875,81720.578125,81830.7265625,0.070556640625,1.00341796875,0.10205078125,-1.8615721464157104,-0.2136230319738388,0.6408690810203552,66.66667175292969,1107.0,1.0
98.0006748,81410.0625,81505.28125,82104.7578125,81682.484375,81625.265625,81705.8203125,81887.046875,81997.2890625,0.070556640625,1.003662109375,0.1025390625,-1.8005369901657104,-0.2136230319738388,0.7629393935203552,66.66667175292969,1108.0,1.0
98.0031924,82605.6171875,82700.921875,83300.578125,82878.21875,82820.90625,82901.90625,83083.40625,83193.734375,0.06787109375,1.004150390625,0.1044921875,-1.8310545682907104,-0.1220703050494194,0.7324218153953552,66.66667175292969,1109.0,1.0
98.0056977,82697.34375,82792.7421875,83392.84375,82970.484375,82912.9921875,82993.8203125,83175.671875,83285.8203125,0.069091796875,1.005615234375,0.103515625,-1.8310545682907104,-0.1220703050494194,0.7019042372703552,66.66667175292969,1110.0,1.0
98.0080352,81635.640625,81730.859375,82330.6015625,81908.1484375,81851.015625,81931.3984375,82113.515625,82223.3984375,0.06884765625,1.0068359375,0.100341796875,-1.8005369901657104,-0.0915527269244194,0.7019042372703552,66.66667175292969,1111.0,1.0
98.0156971,81511.984375,81607.203125,82206.6796875,81784.3203125,81727.0078125,81807.75,81989.421875,82099.5703125,0.06982421875,1.005126953125,0.1005859375,-1.8615721464157104,-0.1831054538488388,0.6713866591453552,66.66667175292969,1112.0,1.0
98.0194396,82684.5625,82779.9609375,83380.328125,82957.4296875,82900.2109375,82981.125,83162.6171875,83273.0390625,0.0693359375,1.00537109375,0.1015625,-1.8615721464157104,-0.1525878757238388,0.6713866591453552,66.66667175292969,1113.0,1.0
98.0231785,83057.2109375,83152.6953125,83753.2421875,83330.5234375,83273.21875,83354.3046875,83535.5390625,83645.953125,0.068115234375,1.005615234375,0.099365234375,-1.9531248807907104,-0.1525878757238388,0.7019042372703552,66.66667175292969,1114.0,1.0
98.0325048,82062.2890625,82158.1328125,82757.875,82335.6015625,82278.1171875,82359.03125,82540.4375,82650.765625,0.0703125,1.00390625,0.1015625,-1.9531248807907104,-0.2441406100988388,0.6713866591453552,66.66667175292969,1115.0,1.0
98.032511,81659.421875,81755.265625,82355.09375,81932.6484375,81875.15625,81955.890625,82137.390625,82247.625,0.0712890625,1.00341796875,0.10107421875,-1.8310545682907104,-0.1525878757238388,0.6713866591453552,66.66667175292969,1116.0,1.0
98.0344289,82730.78125,82827.2578125,83427.4453125,83004.8125,82947.234375,83028.0625,83209.6484375,83319.8828125,0.069091796875,1.00390625,0.10107421875,-1.8005369901657104,-0.1220703050494194,0.7019042372703552,66.66667175292969,1117.0,1.0
98.0381908,83364.59375,83460.96875,84061.15625,83638.265625,83580.8671875,83661.6875,83843.546875,83953.875,0.068359375,1.005126953125,0.101806640625,-1.9531248807907104,-0.0915527269244194,0.6103515028953552,66.66667175292969,1118.0,1.0
98.0475102,82507.4453125,82603.46875,83203.5703125,82780.4921875,82723.2734375,82804.09375,82985.6796875,83096.1015625,0.0693359375,1.005126953125,0.09716796875,-1.8920897245407104,-0.2441406100988388,0.6103515028953552,66.66667175292969,1119.0,1.0
98.0475182,81856.4765625,81952.140625,82552.0625,82129.609375,82072.4765625,82152.9453125,82334.3515625,82444.59375,0.0693359375,1.004638671875,0.095703125,-1.8615721464157104,-0.2136230319738388,0.7019042372703552,66.66667175292969,1120.0,1.0
98.0500119,82759.390625,82855.5078125,83455.15625,83032.9765625,82975.7578125,83056.2265625,83237.71875,83348.046875,0.068603515625,1.004150390625,0.096435546875,-1.7700194120407104,-0.2136230319738388,0.7324218153953552,66.66667175292969,1121.0,1.0
98.0500191,83620.296875,83717.03125,84317.1328125,83894.234375,83836.8359375,83917.75,84099.25,84209.7578125,0.06982421875,1.00341796875,0.097412109375,-1.8310545682907104,-0.1831054538488388,0.6713866591453552,66.66667175292969,1122.0,1.0
98.0631816,82959.84375,83056.3125,83656.5,83233.4296875,83176.03125,83257.03125,83438.53125,83548.6796875,0.071044921875,1.005126953125,0.099609375,-1.8920897245407104,-0.1831054538488388,0.7934569716453552,66.66667175292969,1123.0,1.0
98.0656925,82109.4921875,82205.6953125,82805.9765625,82382.8984375,82325.4140625,82406.59375,82588.09375,82698.0625,0.071044921875,1.006103515625,0.0986328125,-1.8615721464157104,-0.0915527269244194,0.7934569716453552,66.66667175292969,1124.0,1.0
98.0681918,82786.125,82882.0625,83482.3359375,83059.4453125,83001.6875,83082.8671875,83264.8984375,83374.6953125,0.0712890625,1.004150390625,0.101318359375,-1.9226073026657104,-0.0915527269244194,0.6713866591453552,66.66667175292969,1125.0,1.0
98.0707031,83823.3359375,83919.8984375,84519.90625,84097.015625,84039.34375,84120.5234375,84302.6484375,84412.53125,0.0693359375,1.00537109375,0.1025390625,-1.8920897245407104,-0.1831054538488388,0.6103515028953552,66.66667175292969,1126.0,1.0
98.1000208,83402.40625,83498.96875,84098.890625,83675.640625,83618.234375,83699.6875,83881.359375,83991.15625,0.071044921875,1.00537109375,0.102294921875,-1.8005369901657104,-0.0915527269244194,0.6103515028953552,66.66667175292969,1127.0,1.0
98.1000265,82412.8515625,82508.609375,83108.2578125,82685.453125,82628.234375,82709.4140625,82891.09375,83001.2421875,0.071044921875,1.002685546875,0.101318359375,-1.8615721464157104,-0.1220703050494194,0.5798339247703552,66.66667175292969,1128.0,1.0
98.1019439,82826.09375,82921.9375,83521.765625,83099.0546875,83041.921875,83122.8359375,83304.421875,83414.75,0.070068359375,1.00244140625,0.1005859375,-1.7700194120407104,-0.1525878757238388,0.6103515028953552,66.66667175292969,1129.0,1.0
98.1044479,83978.90625,84075.2890625,84675.203125,84252.046875,84195.0,84276.1796875,84457.765625,84568.1875,0.069580078125,1.003173828125,0.102783203125,-1.8920897245407104,-0.2136230319738388,0.6408690810203552,66.66667175292969,1130.0,1.0
98.1069321,83825.6640625,83921.8671875,84522.140625,84098.796875,84041.9375,84123.03125,84304.34375,84414.8515625,0.0693359375,1.00537109375,0.10107421875,-1.8615721464157104,-0.1831054538488388,0.6713866591453552,66.66667175292969,1131.0,1.0
98.1094303,82762.5234375,82858.4609375,83458.6484375,83035.390625,82978.6171875,83059.171875,83240.8515625,83351.265625,0.069091796875,1.00732421875,0.100830078125,-1.8005369901657104,-0.0915527269244194,0.7019042372703552,66.66667175292969,1132.0,1.0
98.111931,82886.7109375,82982.8203125,83582.8359375,83160.0234375,83102.71875,83183.1796875,83365.3046875,83475.453125,0.0673828125,1.005615234375,0.10205078125,-1.7700194120407104,-0.1525878757238388,0.6103515028953552,66.66667175292969,1133.0,1.0
98.1144377,84082.4375,84179.0,84779.3671875,84356.203125,84298.7109375,84379.8984375,84561.9296875,84672.078125,0.068359375,1.0068359375,0.099609375,-1.8005369901657104,-0.2746581733226776,0.5493163466453552,66.66667175292969,1134.0,1.0
98.1168556,84213.1484375,84309.3515625,84910.078125,84486.6484375,84429.3359375,84510.6953125,84692.4609375,84803.0625,0.070068359375,1.006103515625,0.099365234375,-1.8615721464157104,-0.1831054538488388,0.6713866591453552,66.66667175292969,1135.0,1.0
98.1244302,83153.765625,83249.8828125,83850.15625,83426.90625,83369.6875,83450.78125,83632.6328125,83743.140625,0.070556640625,1.0048828125,0.1005859375,-1.8615721464157104,-0.1831054538488388,0.5798339247703552,66.66667175292969,1136.0,1.0
98.1269306,82989.703125,83085.640625,83685.7421875,83262.84375,83205.265625,83286.359375,83468.2109375,83578.6328125,0.070556640625,1.00390625,0.0986328125,-1.8005369901657104,-0.1831054538488388,0.5798339247703552,66.66667175292969,1137.0,1.0
98.1300341,84149.40625,84245.3359375,84845.8828125,84422.453125,84365.140625,84446.7734375,84628.359375,84738.59375,0.06884765625,1.00537109375,0.098388671875,-1.8310545682907104,-0.2441406100988388,0.6713866591453552,66.66667175292969,1138.0,1.0
98.1300407,84556.03125,84652.5,85253.046875,84829.8828125,84772.2109375,84853.75,85035.875,85145.6640625,0.069091796875,1.0078125,0.100341796875,-1.8005369901657104,-0.2746581733226776,0.5493163466453552,66.66667175292969,1139.0,1.0
98.1319333,83577.0234375,83673.671875,84273.9453125,83850.6953125,83793.2109375,83874.65625,84056.328125,84166.2109375,0.06982421875,1.006591796875,0.0986328125,-1.8920897245407104,-0.3051757514476776,0.6103515028953552,66.66667175292969,1140.0,1.0
98.1344422,83136.515625,83233.0703125,83833.171875,83410.1015625,83352.6953125,83433.8828125,83615.46875,83725.5234375,0.070068359375,1.00732421875,0.100341796875,-1.9226073026657104,-0.2441406100988388,0.6713866591453552,66.66667175292969,1141.0,1.0
98.1369446,84185.8828125,84282.171875,84882.8125,84459.2890625,84401.796875,84483.1640625,84665.28125,84775.078125,0.071044921875,1.006103515625,0.100830078125,-1.8310545682907104,-0.1220703050494194,0.7019042372703552,66.66667175292969,1142.0,1.0
98.1400303,84852.6796875,84949.421875,85550.140625,85126.7109375,85068.8671875,85150.765625,85332.796875,85443.03125,0.0712890625,1.00634765625,0.099609375,-1.8615721464157104,-0.1220703050494194,0.7934569716453552,66.66667175292969,1143.0,1.0
98.1400365,84021.1953125,84117.7578125,84718.2109375,84294.9609375,84237.46875,84318.921875,84500.59375,84610.8359375,0.070556640625,1.005859375,0.10107421875,-1.8310545682907104,-0.1220703050494194,0.7324218153953552,66.66667175292969,1144.0,1.0
98.1481813,83340.6328125,83437.1015625,84036.84375,83614.0390625,83556.90625,83637.8203125,83819.40625,83929.5546875,0.069580078125,1.004638671875,0.10205078125,-1.9226073026657104,-0.1220703050494194,0.7324218153953552,66.66667175292969,1145.0,1.0
98.1525112,84212.34375,84308.7265625,84909.09375,84485.9296875,84428.7109375,84509.625,84691.5703125,84801.8046875,0.06982421875,1.006103515625,0.099365234375,-1.9531248807907104,-0.1831054538488388,0.6408690810203552,66.66667175292969,1146.0,1.0
98.1525193,85099.4453125,85196.09375,85796.90625,85373.65625,85316.078125,85397.4375,85579.109375,85689.7109375,0.0693359375,1.005615234375,0.100830078125,-1.8920897245407104,-0.1525878757238388,0.6713866591453552,66.66667175292969,1147.0,1.0
98.1581797,84466.3515625,84562.8203125,85163.3671875,84739.8515625,84682.8984375,84763.8984375,84945.84375,85055.8984375,0.068359375,1.00537109375,0.101806640625,-1.9531248807907104,-0.1525878757238388,0.6713866591453552,66.66667175292969,1148.0,1.0
98.1675107,83589.625,83685.6484375,84286.109375,83862.5,83805.546875,83886.640625,84068.3125,84178.640625,0.06884765625,1.005615234375,0.103271484375,-1.8920897245407104,-0.1525878757238388,0.6713866591453552,66.66667175292969,1149.0,1.0
98.1675163,84232.9140625,84329.5625,84930.1953125,84506.4921875,84449.0078125,84530.3671875,84712.1328125,84822.640625,0.070068359375,1.005615234375,0.102294921875,-1.8615721464157104,-0.1220703050494194,0.7324218153953552,66.66667175292969,1150.0,1.0
98.1694263,85290.8671875,85387.9609375,85988.7734375,85565.25,85507.5,85589.125,85770.890625,85881.484375,0.06982421875,1.004638671875,0.100830078125,-1.8310545682907104,-0.2136230319738388,0.6713866591453552,66.66667175292969,1151.0,1.0
98.1838433,84903.5546875,85000.203125,85600.8359375,85177.2265625,85119.5625,85201.546875,85383.3125,85493.28125,0.06884765625,1.003662109375,0.098388671875,-1.8310545682907104,-0.1220703050494194,0.6713866591453552,66.66667175292969,1152.0,1.0
98.1838512,83894.234375,83990.9765625,84591.34375,84168.09375,84110.6015625,84192.0546875,84373.9921875,84483.875,0.068359375,1.00537109375,0.102294921875,-1.8310545682907104,-0.0610351525247097,0.6713866591453552,66.66667175292969,1153.0,1.0
98.1862764,84267.6875,84364.25,84965.0625,84541.71875,84484.3203125,84565.5078125,84747.4453125,84857.59375,0.070556640625,1.00439453125,0.10302734375,-1.8005369901657104,-0.03051757626235485,0.5798339247703552,66.66667175292969,1154.0,1.0
98.1862835,85431.765625,85529.21875,86129.59375,85706.15625,85648.3984375,85730.2109375,85912.15625,86022.390625,0.068359375,1.004638671875,0.1025390625,-1.8920897245407104,-0.0610351525247097,0.5798339247703552,66.66667175292969,1155.0,1.0
98.2000095,85316.4375,85413.53125,86014.2578125,85590.734375,85533.15625,85614.609375,85796.3671875,85906.6953125,0.0703125,1.00244140625,0.102294921875,-1.9531248807907104,-0.0915527269244194,0.6713866591453552,66.66667175292969,1156.0,1.0
98.2000151,84246.3203125,84342.96875,84943.609375,84520.0,84462.6875,84543.6875,84725.8125,84835.875,0.0703125,1.002685546875,0.102294921875,-1.8920897245407104,-0.0610351525247097,0.6408690810203552,66.66667175292969,1157.0,1.0
98.2025103,84330.0078125,84426.65625,85027.6484375,84603.859375,84546.28125,84627.8203125,84809.765625,84920.0,0.072265625,1.00341796875,0.1025390625,-1.8615721464157104,-0.1525878757238388,0.7019042372703552,66.66667175292969,1158.0,1.0
98.202518,85527.4375,85624.0859375,86225.34375,85801.6484375,85743.796875,85825.6953125,86007.640625,86117.96875,0.068603515625,1.004150390625,0.098876953125,-1.8615721464157104,-0.0610351525247097,0.7019042372703552,66.66667175292969,1159.0,1.0
98.2112597,85694.890625,85791.6328125,86392.4453125,85969.1953125,85911.2578125,85993.0625,86174.921875,86285.609375,0.068115234375,1.005859375,0.098388671875,-1.8310545682907104,-0.1220703050494194,0.7019042372703552,66.66667175292969,1160.0,1.0
98.2112652,84640.0703125,84736.6328125,85337.0859375,84913.921875,84856.4375,84937.703125,85120.0078125,85230.2421875,0.068115234375,1.003173828125,0.098388671875,-1.8615721464157104,-0.1220703050494194,0.7019042372703552,66.66667175292969,1161.0,1.0
98.2223671,84432.6484375,84529.296875,85129.84375,84706.5,84649.1015625,84730.3671875,84912.7578125,85022.8203125,0.067138671875,1.0048828125,0.099609375,-1.8920897245407104,-0.1220703050494194,0.6713866591453552,66.66667175292969,1162.0,1.0
98.222375,85582.6875,85679.515625,86280.5078125,85856.6328125,85799.5,85881.0390625,86063.3359375,86173.3984375,0.0693359375,1.005615234375,0.100341796875,-1.8615721464157104,-0.1525878757238388,0.6713866591453552,66.66667175292969,1163.0,1.0
98.2306119,86030.078125,86127.0,86727.9921875,86303.7578125,86246.4453125,86328.5234375,86510.375,86620.6171875,0.070068359375,1.004638671875,0.0986328125,-1.8005369901657104,-0.1220703050494194,0.6103515028953552,66.66667175292969,1164.0,1.0
98.2306196,85064.84375,85161.578125,85762.125,85338.4296875,85281.3828125,85362.296875,85544.78125,85654.9296875,0.068603515625,1.005126953125,0.09912109375,-1.9226073026657104,-0.0915527269244194,0.7019042372703552,66.66667175292969,1165.0,1.0
98.2306223,84585.53125,84681.8203125,85282.546875,84859.03125,84801.71875,84883.1640625,85065.203125,85175.171875,0.071044921875,1.00390625,0.101318359375,-1.9226073026657104,-0.1525878757238388,0.7934569716453552,66.66667175292969,1166.0,1.0
98.2350216,85611.5625,85708.3046875,86309.390625,85885.6015625,85828.109375,85909.7421875,86091.4140625,86201.4765625,0.071044921875,1.004150390625,0.103515625,-1.8615721464157104,-0.2136230319738388,0.7324218153953552,66.66667175292969,1167.0,1.0
98.2350267,86311.7109375,86409.1640625,87010.25,86586.640625,86528.703125,86610.5078125,86792.3671875,86902.9609375,0.069580078125,1.005859375,0.103271484375,-1.8310545682907104,-0.0610351525247097,0.6713866591453552,66.66667175292969,1168.0,1.0
98.2431803,85504.90625,85602.0,86202.8125,85779.296875,85721.8046875,85802.984375,85984.9296875,86095.5234375,0.068115234375,1.005126953125,0.100341796875,-1.8310545682907104,-0.2136230319738388,0.5493163466453552,66.66667175292969,1169.0,1.0
98.250008,84790.359375,84887.1015625,85487.9140625,85064.578125,85006.8203125,85088.1796875,85270.03125,85380.359375,0.070068359375,1.00537109375,0.100830078125,-1.8310545682907104,-0.1831054538488388,0.6713866591453552,66.66667175292969,1170.0,1.0
98.2500146,85630.703125,85727.9765625,86328.609375,85905.1796875,85847.5078125,85928.875,86110.90625,86221.140625,0.06982421875,1.00537109375,0.10400390625,-1.8920897245407104,-0.2136230319738388,0.5798339247703552,66.66667175292969,1171.0,1.0
98.2631802,86542.2890625,86639.8359375,87241.0078125,86816.953125,86759.375,86840.8203125,87023.03125,87133.359375,0.069091796875,1.00634765625,0.102294921875,-1.8615721464157104,-0.2136230319738388,0.6713866591453552,66.66667175292969,1172.0,1.0
98.26688,85942.375,86039.375,86640.5546875,86216.40625,86159.0078125,86240.546875,86422.84375,86532.90625,0.067626953125,1.007080078125,0.09765625,-1.8005369901657104,-0.1831054538488388,0.6713866591453552,66.66667175292969,1173.0,1.0
98.2668858,85044.0078125,85140.8359375,85741.3828125,85317.7734375,85260.640625,85342.0078125,85524.125,85634.2734375,0.069091796875,1.004638671875,0.099853515625,-1.8920897245407104,-0.2441406100988388,0.6408690810203552,66.66667175292969,1174.0,1.0
98.2668881,85648.578125,85745.40625,86346.3984375,85922.8828125,85865.3046875,85946.84375,86128.9609375,86239.1171875,0.069580078125,1.00390625,0.101806640625,-1.8920897245407104,-0.1831054538488388,0.5798339247703552,66.66667175292969,1175.0,1.0
98.2694235,86723.34375,86820.703125,87421.609375,86997.734375,86940.2421875,87021.9609375,87203.90625,87314.3203125,0.06884765625,1.003662109375,0.104248046875,-2.014159917831421,-0.1831054538488388,0.5187987685203552,66.66667175292969,1176.0,1.0
98.2731789,86371.2578125,86468.3515625,87068.9921875,86645.3828125,86588.25,86669.6953125,86851.375,86961.96875,0.069580078125,1.00439453125,0.100341796875,-1.9226073026657104,-0.2441406100988388,0.6408690810203552,66.66667175292969,1177.0,1.0
98.2869291,85347.9921875,85444.5546875,86045.546875,85622.203125,85564.5390625,85646.1640625,85827.9296875,85938.078125,0.071044921875,1.00439453125,0.10205078125,-1.8920897245407104,-0.1831054538488388,0.6713866591453552,66.66667175292969,1178.0,1.0
98.2906035,85679.4296875,85776.34375,86377.6953125,85953.9921875,85896.1484375,85977.421875,86159.8125,86269.6875,0.07080078125,1.00537109375,0.102294921875,-1.8615721464157104,-0.1220703050494194,0.7934569716453552,66.66667175292969,1179.0,1.0
98.2906103,86851.28125,86948.828125,87550.359375,87126.1171875,87068.3671875,87150.2578125,87332.3828125,87442.796875,0.06982421875,1.00439453125,0.098876953125,-1.8005369901657104,-0.0915527269244194,0.6713866591453552,66.66667175292969,1180.0,1.0
98.2906137,86773.234375,86870.5078125,87471.859375,87047.4453125,86990.1328125,87071.8515625,87254.1484375,87364.296875,0.070068359375,1.005859375,0.097412109375,-1.8615721464157104,-0.1220703050494194,0.5798339247703552,66.66667175292969,1181.0,1.0
98.2931765,85700.8828125,85797.8046875,86399.0625,85974.9140625,85917.515625,85998.96875,86181.0859375,86291.234375,0.06884765625,1.00537109375,0.101318359375,-1.8005369901657104,-0.03051757626235485,0.6713866591453552,66.66667175292969,1182.0,1.0
98.2956819,85743.796875,85840.625,86442.0703125,86017.921875,85960.609375,86041.6171875,86223.828125,86334.15625,0.068359375,1.00390625,0.10302734375,-1.9531248807907104,-0.1525878757238388,0.6103515028953552,66.66667175292969,1183.0,1.0
98.2994335,86936.3125,87033.5859375,87634.9375,87210.96875,87153.390625,87234.75,87417.140625,87527.46875,0.06689453125,1.0048828125,0.102294921875,-1.8920897245407104,-0.1525878757238388,0.5798339247703552,66.66667175292969,1184.0,1.0
98.3081797,87141.5,87238.7734375,87840.2109375,87416.15625,87358.21875,87440.1171875,87622.2421875,87732.65625,0.067626953125,1.00439453125,0.100830078125,-1.8920897245407104,-0.0915527269244194,0.6408690810203552,66.66667175292969,1185.0,1.0
98.3106685,86095.078125,86192.625,86793.3515625,86369.5625,86311.984375,86393.5234375,86575.4609375,86685.703125,0.0693359375,1.006103515625,0.10498046875,-1.8920897245407104,-0.1831054538488388,0.6103515028953552,66.66667175292969,1186.0,1.0
98.3225136,85848.3125,85945.3203125,86546.4921875,86123.15625,86065.3046875,86146.3984375,86328.703125,86438.578125,0.071533203125,1.0068359375,0.101318359375,-1.9836424589157104,-0.2441406100988388,0.7019042372703552,66.66667175292969,1187.0,1.0
98.3225205,86982.625,87079.6328125,87681.25,87257.546875,87199.8828125,87281.2421875,87463.2734375,87573.9609375,0.07080078125,1.007080078125,0.1015625,-1.9836424589157104,-0.1831054538488388,0.7324218153953552,66.66667175292969,1188.0,1.0
98.3250058,87465.6015625,87563.3203125,88164.7578125,87740.6171875,87683.125,87765.0234375,87946.875,88057.3828125,0.069580078125,1.005126953125,0.10107421875,-1.9226073026657104,-0.2136230319738388,0.6408690810203552,66.66667175292969,1189.0,1.0
98.3250134,86518.0625,86615.7890625,87216.6875,86793.078125,86735.4140625,86817.1328125,86998.890625,87109.7578125,0.069091796875,1.003662109375,0.099609375,-1.9531248807907104,-0.1525878757238388,0.6103515028953552,66.66667175292969,1190.0,1.0
98.3319496,86001.2890625,86098.296875,86699.3828125,86275.59375,86218.28125,86299.5546875,86481.5,86592.453125,0.0693359375,1.005126953125,0.100830078125,-1.8920897245407104,-0.1525878757238388,0.7019042372703552,66.66667175292969,1191.0,1.0
98.3369273,87004.078125,87101.625,87703.15625,87278.828125,87221.515625,87303.1484375,87484.8203125,87595.8671875,0.06982421875,1.007080078125,0.103271484375,-1.9226073026657104,-0.1525878757238388,0.6408690810203552,66.66667175292969,1192.0,1.0
98.3394586,87736.4140625,87833.953125,88435.9296875,88011.1640625,87953.9375,88035.75,88217.6875,88328.375,0.06982421875,1.0048828125,0.099853515625,-1.9226073026657104,-0.1220703050494194,0.6408690810203552,66.66667175292969,1193.0,1.0
98.3419369,86952.046875,87049.40625,87651.03125,87226.6171875,87169.2109375,87250.9296875,87432.515625,87543.296875,0.0693359375,1.005126953125,0.102294921875,-1.8310545682907104,-0.2441406100988388,0.7324218153953552,66.66667175292969,1194.0,1.0
98.3444236,86208.359375,86305.546875,86906.625,86482.75,86425.171875,86506.796875,86688.4765625,86798.890625,0.068115234375,1.0048828125,0.101806640625,-1.8615721464157104,-0.3356933295726776,0.7324218153953552,66.66667175292969,1195.0,1.0
98.353174,87017.8515625,87114.9453125,87716.203125,87292.2421875,87234.75,87316.2890625,87498.4140625,87608.5625,0.070068359375,1.004638671875,0.103271484375,-1.8005369901657104,-0.2746581733226776,0.6713866591453552,66.66667175292969,1196.0,1.0
98.3575241,87955.4609375,88052.8203125,88654.3515625,88229.9375,88172.8046875,88254.34375,88436.2890625,88546.796875,0.0693359375,1.00390625,0.1025390625,-1.9226073026657104,-0.2441406100988388,0.6103515028953552,66.66667175292969,1197.0,1.0
98.3575302,87387.1875,87484.1953125,88085.546875,87661.3984375,87603.734375,87685.6328125,87867.9296875,87978.078125,0.06982421875,1.00390625,0.10302734375,-1.8920897245407104,-0.1831054538488388,0.7019042372703552,66.66667175292969,1198.0,1.0
98.371885,86464.7734375,86562.140625,87163.1328125,86739.5234375,86681.9453125,86763.578125,86945.609375,87055.9375,0.07080078125,1.0048828125,0.1015625,-1.9226073026657104,-0.1220703050494194,0.7019042372703552,66.66667175292969,1199.0,1.0
98.3718931,87031.8828125,87128.984375,87730.6015625,87306.453125,87248.609375,87330.4140625,87512.5390625,87623.3984375,0.067626953125,1.004638671875,0.103515625,-1.8005369901657104,-0.0610351525247097,0.6713866591453552,66.66667175292969,1200.0,1.0
98.3718958,88123.7265625,88221.0859375,88823.421875,88398.5625,88340.890625,88422.96875,88605.0,88715.6015625,0.068603515625,1.004150390625,0.101806640625,-1.7700194120407104,-0.1525878757238388,0.6408690810203552,66.66667175292969,1201.0,1.0
98.3744304,87810.265625,87907.4453125,88509.3359375,88085.28125,88027.25,88109.0625,88291.09375,88401.421875,0.068359375,1.005126953125,0.099853515625,-1.8615721464157104,-0.1525878757238388,0.7324218153953552,66.66667175292969,1202.0,1.0
98.3769263,86773.6796875,86870.5078125,87472.0390625,87048.4296875,86990.578125,87072.2109375,87254.1484375,87364.390625,0.069091796875,1.005615234375,0.099853515625,-1.8310545682907104,-0.2441406100988388,0.7019042372703552,66.66667175292969,1203.0,1.0
98.3806866,87063.7109375,87160.9921875,87762.875,87338.7265625,87281.1484375,87362.9609375,87544.7265625,87654.9609375,0.0703125,1.004638671875,0.099365234375,-1.8920897245407104,-0.1525878757238388,0.6713866591453552,66.66667175292969,1204.0,1.0
98.3894283,88242.7265625,88340.265625,88942.421875,88518.1875,88460.25,88542.328125,88723.8203125,88834.6015625,0.070556640625,1.00537109375,0.101318359375,-1.8005369901657104,-0.1525878757238388,0.6408690810203552,66.66667175292969,1205.0,1.0
98.3962519,88204.1015625,88301.8203125,88903.4453125,88479.4765625,88421.5390625,88504.0625,88685.2890625,88796.2421875,0.0693359375,1.005126953125,0.100341796875,-1.7700194120407104,-0.2136230319738388,0.5798339247703552,66.66667175292969,1206.0,1.0
98.3962585,87129.6953125,87227.1484375,87828.4140625,87404.53125,87346.6875,87428.671875,87610.2578125,87721.125,0.070556640625,1.005126953125,0.10205078125,-1.8920897245407104,-0.1220703050494194,0.5798339247703552,66.66667175292969,1207.0,1.0
98.4025093,87129.6953125,87226.7890625,87828.59375,87404.4453125,87346.6015625,87428.5859375,87610.2578125,87720.859375,0.068603515625,1.006103515625,0.100341796875,-1.8615721464157104,-0.0915527269244194,0.7324218153953552,66.66667175292969,1208.0,1.0
98.4025177,88316.75,88414.296875,89016.453125,88592.21875,88534.1015625,88616.4453125,88798.1171875,88908.8046875,0.068115234375,1.00537109375,0.10009765625,-1.8920897245407104,-0.0915527269244194,0.7629393935203552,66.66667175292969,1209.0,1.0
98.4137645,88561.3671875,88658.46875,89260.625,88836.4765625,88778.2734375,88860.796875,89042.734375,89153.2421875,0.0693359375,1.00537109375,0.09912109375,-1.9226073026657104,-0.1220703050494194,0.7019042372703552,66.66667175292969,1210.0,1.0
98.4137703,87524.96875,87621.703125,88223.3203125,87799.53125,87741.421875,87823.40625,88005.171875,88116.125,0.069091796875,1.005615234375,0.0986328125,-1.8615721464157104,-0.0610351525247097,0.6408690810203552,66.66667175292969,1211.0,1.0
98.4162463,87239.6640625,87336.140625,87937.84375,87514.1484375,87456.03125,87538.015625,87719.875,87830.828125,0.069580078125,1.00439453125,0.10009765625,-1.8615721464157104,-0.0610351525247097,0.7324218153953552,66.66667175292969,1212.0,1.0
98.4162508,88360.4765625,88457.75,89059.546875,88635.671875,88577.1953125,88660.078125,88841.9296875,88952.2578125,0.0703125,1.005126953125,0.1015625,-1.8310545682907104,-0.1831054538488388,0.7019042372703552,66.66667175292969,1213.0,1.0
98.4181742,88875.1015625,88972.8203125,89574.53125,89150.6484375,89092.4453125,89175.328125,89357.0,89467.2421875,0.069580078125,1.00341796875,0.099853515625,-1.8920897245407104,-0.1220703050494194,0.7019042372703552,66.66667175292969,1214.0,1.0
98.4319151,87945.0,88042.5390625,88643.984375,88220.1953125,88162.078125,88244.6015625,88426.1875,88536.78125,0.06982421875,1.00439453125,0.100830078125,-1.8615721464157104,-0.2136230319738388,0.6408690810203552,66.66667175292969,1215.0,1.0
98.4342922,87396.84375,87494.390625,88095.7421875,87671.7734375,87613.75,87696.09375,87877.5859375,87988.09375,0.070068359375,1.00634765625,0.09814453125,-1.8615721464157104,-0.1525878757238388,0.7019042372703552,66.66667175292969,1216.0,1.0
98.4419417,88373.171875,88470.625,89072.8671875,88648.453125,88590.3359375,88672.7734375,88854.359375,88965.1328125,0.0703125,1.00439453125,0.097900390625,-1.8310545682907104,-0.1831054538488388,0.7629393935203552,66.66667175292969,1217.0,1.0
98.4444165,89131.0703125,89228.796875,89830.953125,89406.625,89348.2421875,89430.9453125,89612.8828125,89723.390625,0.06787109375,1.003662109375,0.095703125,-1.9226073026657104,-0.1525878757238388,0.7629393935203552,66.66667175292969,1218.0,1.0
98.446952,88373.4375,88470.7109375,89072.78125,88648.71875,88590.515625,88673.21875,88854.890625,88965.671875,0.06884765625,1.0068359375,0.09716796875,-1.9531248807907104,-0.2136230319738388,0.6713866591453552,66.66667175292969,1219.0,1.0
98.4494416,87601.2265625,87698.328125,88300.125,87876.421875,87818.0390625,87900.3828125,88082.5078125,88192.921875,0.06982421875,1.003662109375,0.09814453125,-1.9531248807907104,-0.1831054538488388,0.5798339247703552,66.66667175292969,1220.0,1.0
98.4519412,88379.609375,88476.7890625,89078.859375,88654.890625,88596.421875,88679.2109375,88860.9765625,88971.75,0.069580078125,1.00244140625,0.100341796875,-1.8310545682907104,-0.0915527269244194,0.6103515028953552,66.66667175292969,1221.0,1.0
98.4562633,89340.1953125,89438.1875,90040.25,89616.1015625,89557.453125,89640.9609375,89822.28125,89933.140625,0.069580078125,1.0029296875,0.10009765625,-1.8310545682907104,-0.1525878757238388,0.6713866591453552,66.66667175292969,1222.0,1.0
98.4562698,88802.9453125,88901.203125,89502.734375,89078.859375,89020.5625,89103.7109375,89285.1171875,89395.71875,0.070068359375,1.003173828125,0.10009765625,-1.8920897245407104,0.0,0.6408690810203552,66.66667175292969,1223.0,1.0
98.4719587,87858.71875,87956.53125,88557.8828125,88134.0078125,88076.15625,88158.953125,88340.265625,88451.0390625,0.07177734375,1.00537109375,0.101318359375,-1.8310545682907104,-0.0915527269244194,0.7629393935203552,66.66667175292969,1224.0,1.0
98.4750304,88389.0859375,88486.8984375,89088.421875,88664.546875,88606.5234375,88689.1328125,88870.71875,88981.3125,0.0693359375,1.00732421875,0.101806640625,-1.9226073026657104,0.0,0.7019042372703552,66.66667175292969,1225.0,1.0
98.4750422,89498.625,89595.9921875,90198.5,89774.53125,89716.2421875,89799.1171875,89980.4375,90091.484375,0.07080078125,1.005126953125,0.101318359375,-1.7700194120407104,0.03051757626235485,0.6103515028953552,66.66667175292969,1226.0,1.0
98.4769576,89221.28125,89318.828125,89921.1640625,89497.1953125,89438.71875,89521.6875,89703.0078125,89814.0546875,0.06982421875,1.006103515625,0.099609375,-1.8005369901657104,-0.03051757626235485,0.6103515028953552,66.66667175292969,1227.0,1.0
98.4794355,88171.1953125,88268.5625,88870.5390625,88446.5703125,88388.28125,88471.15625,88652.7421875,88763.34375,0.067626953125,1.007080078125,0.09814453125,-1.7089842557907104,-0.0915527269244194,0.6103515028953552,66.66667175292969,1228.0,1.0
98.48194,88415.9921875,88513.5390625,89115.78125,88691.9921875,88633.2578125,88716.2265625,88897.8125,89008.4921875,0.070556640625,1.005126953125,0.09912109375,-1.8005369901657104,-0.1220703050494194,0.7019042372703552,66.66667175292969,1229.0,1.0
98.493783,89605.734375,89703.546875,90305.96875,89881.9140625,89822.9921875,89906.6796875,90088.171875,90198.59375,0.072021484375,1.003173828125,0.1025390625,-1.9531248807907104,-0.0915527269244194,0.6103515028953552,66.66667175292969,1230.0,1.0
98.4937959,89612.796875,89710.875,90313.4765625,89888.703125,89830.1484375,89913.7421875,90095.234375,90205.4765625,0.069580078125,1.00390625,0.10205078125,-1.8920897245407104,-0.0610351525247097,0.7324218153953552,66.66667175292969,1231.0,1.0
98.4962701,88530.1640625,88627.53125,89230.046875,88805.6328125,88747.0703125,88830.125,89011.890625,89121.953125,0.070068359375,1.005126953125,0.1015625,-1.8920897245407104,-0.2136230319738388,0.7019042372703552,66.66667175292969,1232.0,1.0
98.4962818,88478.3125,88575.8515625,89178.1875,88753.6875,88695.8359375,88778.09375,88960.0390625,89070.6328125,0.069580078125,1.00634765625,0.1015625,-1.8920897245407104,-0.1525878757238388,0.7324218153953552,66.66667175292969,1233.0,1.0
98.4981851,89665.8125,89764.0703125,90366.40625,89941.7265625,89883.703125,89966.578125,90147.8984375,90258.8515625,0.0703125,1.005126953125,0.096435546875,-1.8310545682907104,-0.0610351525247097,0.7629393935203552,66.66667175292969,1234.0,1.0
98.5069357,89958.890625,90057.5078125,90659.5703125,90235.15625,90177.046875,90260.28125,90441.5078125,90552.375,0.070068359375,1.005859375,0.099609375,-1.8920897245407104,-0.1525878757238388,0.7324218153953552,66.66667175292969,1235.0,1.0
98.509437,88927.046875,89025.2109375,89627.4609375,89202.7734375,89144.75,89227.8984375,89409.3984375,89520.171875,0.0693359375,1.005615234375,0.101806640625,-1.9531248807907104,-0.0915527269244194,0.7019042372703552,66.66667175292969,1236.0,1.0
98.5131814,88592.3046875,88690.1171875,89292.359375,88867.6796875,88809.65625,88892.8046875,89074.390625,89185.0703125,0.071533203125,1.005126953125,0.10205078125,-1.9836424589157104,-0.0915527269244194,0.6713866591453552,66.66667175292969,1237.0,1.0
98.5225229,89697.2890625,89795.546875,90397.703125,89973.1953125,89915.078125,89998.3203125,90179.90625,90290.4140625,0.071533203125,1.00341796875,0.10205078125,-1.8005369901657104,-0.1220703050494194,0.5798339247703552,66.66667175292969,1238.0,1.0
98.5225343,90256.6171875,90354.9609375,90957.390625,90532.5234375,90474.59375,90557.5625,90739.0546875,90849.828125,0.069580078125,1.004150390625,0.100341796875,-1.9531248807907104,-0.1525878757238388,0.5493163466453552,66.66667175292969,1239.0,1.0
98.525017,89345.6484375,89443.8203125,90046.0625,89621.46875,89563.3515625,89645.96875,89827.734375,89938.4140625,0.0703125,1.0048828125,0.10107421875,-1.7700194120407104,-0.1220703050494194,0.6713866591453552,66.66667175292969,1240.0,1.0
98.5250274,88750.109375,88848.28125,89450.5234375,89026.015625,88967.90625,89050.4296875,89232.28125,89342.7890625,0.06982421875,1.00390625,0.10302734375,-1.8920897245407104,-0.1220703050494194,0.7019042372703552,66.66667175292969,1241.0,1.0
98.5356965,89704.6171875,89803.140625,90405.5703125,89980.9765625,89922.3203125,90005.46875,90186.96875,90297.921875,0.0693359375,1.00537109375,0.101806640625,-1.9531248807907104,-0.1831054538488388,0.7934569716453552,66.66667175292969,1242.0,1.0
