Time,FZ,C3,CZ,C4,PZ,PO7,OZ,PO8,AccX,AccY,AccZ,Gyro1,Gyro2,Gyro3,Battery,Counter,Validation
416.677888,-123564.7421875,69858.6796875,-263535.3125,-260078.734375,-124972.546875,-267285.46875,-261447.203125,-386574.78125,0.070556640625,1.002685546875,0.10498046875,-1.9836424589157104,-0.1831054538488388,0.7324218153953552,66.66667175292969,80864.0,1.0
416.6778933,-103291.6171875,83106.6484375,-261604.46875,-261894.0625,-107275.7734375,-267844.46875,-261713.640625,-387895.0625,0.0693359375,1.0048828125,0.10009765625,-1.9226073026657104,-0.2441406100988388,0.6713866591453552,66.66667175292969,80865.0,1.0
416.6856305,-98377.71875,87663.28125,-261266.953125,-262625.59375,-97903.0625,-267506.0625,-261591.515625,-388167.46875,0.070068359375,1.003173828125,0.0986328125,-1.9531248807907104,-0.1525878757238388,0.6103515028953552,66.66667175292969,80866.0,1.0
416.6856379,-117448.0546875,75134.40625,-263105.78125,-260953.328125,-113927.6484375,-266934.65625,-261332.9375,-386931.0625,0.068115234375,1.003173828125,0.10009765625,-1.9531248807907104,-0.1831054538488388,0.6103515028953552,66.66667175292969,80867.0,1.0
416.6874615,-125369.6875,68618.15625,-263724.3125,-259980.484375,-125840.234375,-267186.40625,-261413.953125,-386490.125,0.0703125,1.00390625,0.1005859375,-2.014159917831421,-0.2136230319738388,0.6713866591453552,66.66667175292969,80868.0,1.0
416.6912141,-107073.265625,80487.828125,-261942.34375,-261569.25,-111167.4765625,-267813.59375,-261699.421875,-387708.1875,0.06884765625,1.00341796875,0.102783203125,-1.9531248807907104,-0.2441406100988388,0.6408690810203552,66.66667175292969,80869.0,1.0
416.6955331,-97365.0078125,88336.8671875,-261148.046875,-262708.90625,-97876.59375,-267620.3125,-261636.75,-388282.1875,0.07080078125,1.00390625,0.099365234375,-1.9836424589157104,-0.2441406100988388,0.6103515028953552,66.66667175292969,80870.0,1.0
416.6955385,-113863.1875,77914.96875,-262780.875,-261323.640625,-110407.875,-267006.09375,-261373.359375,-387191.96875,0.070556640625,1.00244140625,0.098388671875,-1.9836424589157104,-0.2136230319738388,0.7019042372703552,66.66667175292969,80871.0,1.0
416.7092878,-126165.234375,68646.6796875,-263844.125,-259966.359375,-125694.5078125,-267095.84375,-261380.859375,-386453.53125,0.06884765625,1.001220703125,0.09912109375,-1.9836424589157104,-0.3356933295726776,0.6713866591453552,66.66667175292969,80872.0,1.0
416.709295,-110644.0,78114.96875,-262310.96875,-261220.734375,-114626.8125,-267749.40625,-261670.90625,-387492.90625,0.069580078125,1.00244140625,0.1005859375,-1.9531248807907104,-0.2746581733226776,0.6103515028953552,66.66667175292969,80873.0,1.0
416.7112029,-96717.34375,88569.7734375,-261097.265625,-262708.90625,-98125.328125,-267714.625,-261681.1875,-388346.1875,0.068359375,1.004638671875,0.101318359375,-1.8920897245407104,-0.2441406100988388,0.6408690810203552,66.66667175292969,80874.0,1.0
416.713716,-109766.1171875,80666.9140625,-262434.0,-261692.8125,-106675.40625,-267101.125,-261426.90625,-387466.15625,0.068359375,1.004638671875,0.102783203125,-1.9836424589157104,-0.1525878757238388,0.7629393935203552,66.66667175292969,80875.0,1.0
416.7174556,-125816.546875,69169.8046875,-263872.0,-260039.765625,-124472.0390625,-267021.65625,-261357.0,-386476.53125,0.06884765625,1.003173828125,0.10302734375,-1.9836424589157104,-0.1831054538488388,0.6103515028953552,66.66667175292969,80876.0,1.0
416.7317904,-114273.1171875,75766.6953125,-262688.8125,-260882.6875,-117834.5546875,-267662.6875,-261633.0,-387273.40625,0.0703125,1.001953125,0.101806640625,-2.044677495956421,-0.1525878757238388,0.6408690810203552,66.66667175292969,80877.0,1.0
416.7317971,-97020.7890625,88092.5234375,-261128.921875,-262628.625,-99150.8203125,-267810.21875,-261722.3125,-388357.71875,0.068359375,1.003662109375,0.10400390625,-1.9531248807907104,-0.1220703050494194,0.5798339247703552,66.66667175292969,80878.0,1.0
416.7342962,-106042.1328125,82881.6171875,-262093.171875,-262034.515625,-103392.109375,-267217.09375,-261483.59375,-387731.78125,0.068603515625,1.0029296875,0.1044921875,-1.9226073026657104,-0.2136230319738388,0.5493163466453552,66.66667175292969,80879.0,1.0
416.734304,-124772.5390625,69829.5390625,-263810.21875,-260195.421875,-122629.3671875,-266967.71875,-261341.703125,-386556.8125,0.069091796875,1.005126953125,0.10400390625,-2.014159917831421,-0.2441406100988388,0.6713866591453552,66.66667175292969,80880.0,1.0
416.7362103,-117897.5,73171.8359375,-263047.3125,-260575.390625,-120859.109375,-267558.875,-261589.09375,-387063.75,0.0712890625,1.00537109375,0.104736328125,-1.9531248807907104,-0.1525878757238388,0.6103515028953552,66.66667175292969,80881.0,1.0
416.7499525,-98345.1796875,86678.1015625,-261243.359375,-262465.90625,-101275.9375,-267875.75,-261752.53125,-388309.375,0.06787109375,1.004150390625,0.099609375,-1.8310545682907104,-0.1831054538488388,0.6408690810203552,66.66667175292969,80882.0,1.0
416.7530318,-102748.0234375,84749.859375,-261786.5,-262327.59375,-100743.875,-267338.3125,-261541.796875,-387974.34375,0.06640625,1.002197265625,0.101806640625,-1.8615721464157104,-0.1525878757238388,0.6408690810203552,66.66667175292969,80883.0,1.0
416.7530379,-122876.21875,70999.25,-263665.3125,-260430.828125,-120061.4140625,-266945.375,-261343.578125,-386698.78125,0.069580078125,1.00146484375,0.10107421875,-1.9531248807907104,-0.2441406100988388,0.6103515028953552,66.66667175292969,80884.0,1.0
416.7549524,-121297.734375,70858.1640625,-263367.65625,-260328.71875,-123480.1640625,-267452.84375,-261547.78125,-386887.4375,0.0703125,1.001708984375,0.1005859375,-1.9531248807907104,-0.0915527269244194,0.6713866591453552,66.66667175292969,80885.0,1.0
416.7624678,-100891.0390625,84776.953125,-261444.34375,-262232.65625,-104485.5625,-267914.625,-261771.75,-388207.09375,0.0703125,1.002685546875,0.100830078125,-1.8920897245407104,-0.1831054538488388,0.7019042372703552,66.66667175292969,80886.0,1.0
416.7655361,-100211.90625,86565.625,-261526.515625,-262558.0,-99102.8984375,-267462.6875,-261598.03125,-388183.125,0.06689453125,1.002685546875,0.098876953125,-1.9531248807907104,-0.1831054538488388,0.6408690810203552,66.66667175292969,80887.0,1.0
416.7655421,-120295.3984375,73278.40625,-263442.59375,-260729.453125,-116960.6953125,-266955.75,-261358.875,-386891.71875,0.067138671875,1.00244140625,0.099609375,-1.9226073026657104,-0.2136230319738388,0.7629393935203552,66.66667175292969,80888.0,1.0
416.7736987,-123751.78125,69663.1484375,-263642.5,-260143.46875,-125024.0390625,-267344.84375,-261507.46875,-386745.1875,0.0693359375,1.0029296875,0.1025390625,-1.9836424589157104,-0.2441406100988388,0.7324218153953552,66.66667175292969,80889.0,1.0
416.7767895,-103692.1640625,82727.7421875,-261724.359375,-261928.03125,-107649.1328125,-267919.28125,-261776.21875,-388050.53125,0.070556640625,1.00341796875,0.102294921875,-1.9531248807907104,-0.2136230319738388,0.6103515028953552,66.66667175292969,80890.0,1.0
416.7767954,-98161.4453125,87663.90625,-261332.671875,-262704.625,-97772.078125,-267586.6875,-261654.984375,-388345.75,0.068603515625,1.002685546875,0.10400390625,-1.8005369901657104,-0.2441406100988388,0.6408690810203552,66.66667175292969,80891.0,1.0
416.7787101,-116907.3203125,75411.9296875,-263150.3125,-261076.25,-113356.7890625,-267007.15625,-261397.671875,-387132.78125,0.070556640625,1.003662109375,0.1015625,-1.7700194120407104,-0.2136230319738388,0.6103515028953552,66.66667175292969,80892.0,1.0
416.7824466,-125198.3828125,68673.1484375,-263813.90625,-260063.09375,-125562.359375,-267250.15625,-261477.328125,-386669.1875,0.069091796875,1.003173828125,0.099853515625,-1.7395018339157104,-0.2136230319738388,0.6103515028953552,66.66667175292969,80893.0,1.0
416.7924943,-107048.0546875,80113.21875,-262054.453125,-261609.296875,-111157.5546875,-267887.71875,-261767.1875,-387866.875,0.069580078125,1.001708984375,0.1025390625,-1.8920897245407104,-0.2746581733226776,0.6713866591453552,66.66667175292969,80894.0,1.0
416.8174578,-96932.4609375,88069.8125,-261217.34375,-262784.46875,-97439.84375,-267699.15625,-261705.5,-388461.34375,0.06787109375,1.00390625,0.103515625,-1.9531248807907104,-0.2136230319738388,0.5493163466453552,66.66667175292969,80895.0,1.0
416.8199673,-113096.96875,77734.9921875,-262821.46875,-261447.65625,-109714.34375,-267080.75,-261441.296875,-387396.34375,0.0673828125,1.004150390625,0.103759765625,-1.9836424589157104,-0.1525878757238388,0.5798339247703552,66.66667175292969,80896.0,1.0
416.8224717,-126027.7265625,68072.5078125,-263922.34375,-260058.171875,-125495.75,-267158.875,-261445.15625,-386637.0,0.069091796875,1.003173828125,0.103759765625,-1.9226073026657104,-0.2136230319738388,0.7019042372703552,66.66667175292969,80897.0,1.0
416.824961,-111278.1640625,77295.9140625,-262425.3125,-261262.84375,-115155.65625,-267823.71875,-261739.5625,-387651.40625,0.0693359375,1.001220703125,0.10400390625,-1.9836424589157104,-0.2136230319738388,0.7019042372703552,66.66667175292969,80898.0,1.0
416.8274521,-96964.640625,88027.34375,-261176.921875,-262776.25,-98418.9375,-267808.96875,-261752.0,-388521.53125,0.068115234375,1.0029296875,0.10595703125,-1.9226073026657104,-0.2746581733226776,0.6408690810203552,66.66667175292969,80899.0,1.0
416.8349476,-109464.7265625,80507.765625,-262475.84375,-261810.5625,-106469.9453125,-267181.21875,-261492.796875,-387666.34375,0.068603515625,1.00244140625,0.103271484375,-1.9531248807907104,-0.3356933295726776,0.6713866591453552,66.66667175292969,80900.0,1.0
416.8374523,-125846.5,68831.9296875,-263944.4375,-260140.078125,-124442.09375,-267086.28125,-261422.171875,-386664.28125,0.069091796875,1.001953125,0.1015625,-1.9836424589157104,-0.3051757514476776,0.6408690810203552,66.66667175292969,80901.0,1.0
416.8399509,-114902.0078125,75025.5078125,-262804.75,-260928.734375,-118371.4453125,-267736.09375,-261703.890625,-387433.8125,0.065673828125,1.002685546875,0.099853515625,-2.044677495956421,-0.1525878757238388,0.7019042372703552,66.66667175292969,80902.0,1.0
416.8424485,-97309.578125,87570.0234375,-261217.25,-262685.75,-99593.2109375,-267892.28125,-261794.90625,-388527.25,0.067626953125,1.002197265625,0.100341796875,-1.9836424589157104,-0.1525878757238388,0.7324218153953552,66.66667175292969,80903.0,1.0
416.8449657,-105612.7109375,83060.515625,-262142.25,-262145.65625,-103120.5859375,-267293.09375,-261552.34375,-387929.84375,0.0693359375,1.0029296875,0.10205078125,-1.9226073026657104,-0.1220703050494194,0.7324218153953552,66.66667175292969,80904.0,1.0
416.847467,-124514.15625,70001.9140625,-263880.0625,-260304.765625,-122267.265625,-267037.28125,-261411.078125,-386751.09375,0.068359375,1.004150390625,0.1015625,-2.014159917831421,-0.0610351525247097,0.6408690810203552,66.66667175292969,80905.0,1.0
416.8499552,-118256.828125,72901.2890625,-263165.6875,-260628.328125,-121111.6796875,-267634.09375,-261664.640625,-387228.15625,0.070068359375,1.002685546875,0.09912109375,-1.8920897245407104,-0.1831054538488388,0.6408690810203552,66.66667175292969,80906.0,1.0
416.8524561,-98575.84375,86434.203125,-261346.796875,-262516.25,-101546.6640625,-267963.8125,-261830.5,-388476.375,0.069091796875,1.00390625,0.099609375,-1.9836424589157104,-0.1831054538488388,0.6103515028953552,66.66667175292969,80907.0,1.0
416.8555467,-102388.0703125,84919.2890625,-261842.109375,-262427.71875,-100453.6640625,-267417.09375,-261608.671875,-388166.40625,0.068359375,1.00390625,0.10009765625,-1.9531248807907104,-0.1831054538488388,0.6103515028953552,66.66667175292969,80908.0,1.0
416.8555542,-122558.1953125,71193.53125,-263726.53125,-260541.875,-119654.703125,-267012.0625,-261408.671875,-386892.53125,0.06787109375,1.003662109375,0.102294921875,-1.8920897245407104,-0.1831054538488388,0.6408690810203552,66.66667175292969,80909.0,1.0
416.8574621,-121635.609375,70586.7265625,-263479.34375,-260384.609375,-123704.9296875,-267526.78125,-261623.78125,-387052.40625,0.068359375,1.005126953125,0.100830078125,-1.9531248807907104,-0.1831054538488388,0.6408690810203552,66.66667175292969,80910.0,1.0
416.8605419,-101173.1171875,84445.4296875,-261538.9375,-262270.71875,-104877.25,-268005.5625,-261855.4375,-388370.15625,0.06787109375,1.00537109375,0.10302734375,-1.9531248807907104,-0.1831054538488388,0.7019042372703552,66.66667175292969,80911.0,1.0
416.8605497,-99943.5078125,86653.0703125,-261578.359375,-262647.6875,-98891.8125,-267547.71875,-261673.765625,-388375.09375,0.06884765625,1.004150390625,0.104248046875,-1.9531248807907104,-0.1220703050494194,0.5798339247703552,66.66667175292969,80912.0,1.0
416.8687045,-119916.3984375,73529.109375,-263487.90625,-260848.890625,-116421.03125,-267031.75,-261433.078125,-387096.375,0.067626953125,1.002197265625,0.103759765625,-1.9836424589157104,-0.1220703050494194,0.5798339247703552,66.66667175292969,80913.0,1.0
416.8755339,-123815.796875,69586.703125,-263729.0625,-260225.1875,-124982.828125,-267420.5,-261586.234375,-386926.59375,0.068603515625,1.0029296875,0.100830078125,-1.8615721464157104,-0.0915527269244194,0.6408690810203552,66.66667175292969,80914.0,1.0
416.8755409,-103949.4765625,82429.75,-261835.859375,-261977.75,-108049.6796875,-268000.125,-261854.0,-388214.0625,0.067626953125,1.00244140625,0.102294921875,-1.8920897245407104,-0.0610351525247097,0.6103515028953552,66.66667175292969,80915.0,1.0
416.8900049,-97965.8203125,87715.4921875,-261404.46875,-262791.34375,-97715.484375,-267664.125,-261722.125,-388529.125,0.06884765625,1.003662109375,0.10400390625,-1.9836424589157104,-0.0610351525247097,0.6103515028953552,66.66667175292969,80916.0,1.0
416.8900115,-116415.8515625,75682.296875,-263198.78125,-261198.390625,-112925.84375,-267075.71875,-261461.59375,-387333.125,0.068603515625,1.003173828125,0.101806640625,-1.9226073026657104,-0.0915527269244194,0.6103515028953552,66.66667175292969,80917.0,1.0
416.8968082,-125454.984375,68461.515625,-263910.28125,-260142.21875,-125734.6484375,-267315.34375,-261545.46875,-386842.90625,0.0693359375,1.003662109375,0.098876953125,-1.9226073026657104,-0.2136230319738388,0.6103515028953552,66.66667175292969,80918.0,1.0
416.8968161,-107875.515625,79744.6796875,-262175.78125,-261643.625,-111995.5703125,-267964.34375,-261838.71875,-388018.625,0.070556640625,1.002197265625,0.09912109375,-1.9226073026657104,-0.3356933295726776,0.6103515028953552,66.66667175292969,80919.0,1.0
416.8992947,-97157.8515625,88240.578125,-261293.328125,-262856.875,-97891.703125,-267786.0625,-261773.890625,-388638.28125,0.070556640625,1.001953125,0.10205078125,-1.8615721464157104,-0.2441406100988388,0.7019042372703552,66.66667175292969,80920.0,1.0
416.8993017,-112803.8984375,78464.8203125,-262866.1875,-261566.5625,-109456.40625,-267154.21875,-261505.3125,-387596.34375,0.069091796875,1.00390625,0.102294921875,-1.9226073026657104,-0.0610351525247097,0.6713866591453552,66.66667175292969,80921.0,1.0
416.9105355,-126043.3671875,68654.8203125,-264008.0,-260145.53125,-125383.1875,-267223.34375,-261511.578125,-386815.375,0.068603515625,1.00244140625,0.103515625,-2.044677495956421,-0.1831054538488388,0.6408690810203552,66.66667175292969,80922.0,1.0
416.9105428,-111482.015625,77392.7421875,-262546.71875,-261297.984375,-115388.296875,-267894.15625,-261809.484375,-387802.4375,0.068603515625,1.000244140625,0.102783203125,-2.075195074081421,-0.1525878757238388,0.6713866591453552,66.66667175292969,80923.0,1.0
416.9130305,-96737.1015625,88322.3828125,-261259.359375,-262838.03125,-98325.328125,-267879.78125,-261820.5625,-388692.28125,0.068359375,1.003662109375,0.099609375,-1.9531248807907104,-0.1525878757238388,0.7324218153953552,66.66667175292969,80924.0,1.0
416.913036,-108797.4765625,81156.953125,-262523.5,-261925.71875,-105788.578125,-267250.625,-261557.984375,-387866.4375,0.06884765625,1.001220703125,0.10009765625,-1.9836424589157104,-0.1831054538488388,0.7019042372703552,66.66667175292969,80925.0,1.0
416.9261989,-125529.1875,69294.1640625,-264024.8125,-260237.34375,-123952.6796875,-267151.1875,-261488.78125,-386849.875,0.06982421875,1.00390625,0.10400390625,-1.9836424589157104,-0.1525878757238388,0.7019042372703552,66.66667175292969,80926.0,1.0
416.9305447,-115073.4921875,75074.1484375,-262928.15625,-260967.890625,-118536.40625,-267804.65625,-261774.34375,-387586.875,0.06982421875,1.001953125,0.10498046875,-1.9531248807907104,-0.2441406100988388,0.6713866591453552,66.66667175292969,80927.0,1.0
416.9305509,-97227.140625,87693.5859375,-261310.765625,-262741.71875,-99568.7109375,-267979.1875,-261867.421875,-388696.84375,0.069091796875,1.00244140625,0.1015625,-1.9836424589157104,-0.1220703050494194,0.6713866591453552,66.66667175292969,80928.0,1.0
416.9330402,-105182.84375,83290.46875,-262189.625,-262257.0625,-102607.2109375,-267373.53125,-261618.515625,-388129.9375,0.06982421875,1.00341796875,0.10302734375,-1.9836424589157104,-0.1831054538488388,0.6103515028953552,66.66667175292969,80929.0,1.0
416.9330456,-124299.1328125,70075.8515625,-263946.21875,-260410.171875,-121902.578125,-267099.25,-261474.203125,-386941.09375,0.068115234375,1.00341796875,0.101318359375,-1.8920897245407104,-0.1220703050494194,0.6103515028953552,66.66667175292969,80930.0,1.0
416.951199,-118611.953125,72543.84375,-263281.125,-260675.625,-121409.40625,-267698.09375,-261730.625,-387383.65625,0.068359375,1.003173828125,0.1015625,-1.9836424589157104,-0.1831054538488388,0.6713866591453552,66.66667175292969,80931.0,1.0
416.9567679,-98741.4296875,86123.6875,-261441.296875,-262563.71875,-101886.9453125,-268043.21875,-261899.0625,-388638.65625,0.0693359375,1.003662109375,0.10205078125,-2.014159917831421,-0.1525878757238388,0.5798339247703552,66.66667175292969,80932.0,1.0
416.9567747,-101962.046875,85069.2265625,-261882.796875,-262536.625,-100088.96875,-267498.625,-261675.8125,-388366.59375,0.066650390625,1.0029296875,0.10009765625,-1.9531248807907104,-0.1220703050494194,0.6408690810203552,66.66667175292969,80933.0,1.0
416.956777,-122267.53125,71306.1796875,-263782.5,-260658.640625,-119173.15625,-267078.40625,-261473.9375,-387090.9375,0.06689453125,1.003173828125,0.100830078125,-1.9531248807907104,-0.2746581733226776,0.7934569716453552,66.66667175292969,80934.0,1.0
416.9567792,-122009.234375,70267.8984375,-263595.21875,-260442.0,-124022.4140625,-267586.96875,-261687.265625,-387211.96875,0.06787109375,1.0009765625,0.10107421875,-1.9226073026657104,-0.2136230319738388,0.7629393935203552,66.66667175292969,80935.0,1.0
416.9592761,-101628.6484375,84081.1875,-261664.109375,-262314.8125,-105467.4296875,-268077.53125,-261917.21875,-388525.09375,0.0673828125,1.002197265625,0.102783203125,-1.9531248807907104,-0.1220703050494194,0.6408690810203552,66.66667175292969,80936.0,1.0
416.9592816,-99836.21875,86698.484375,-261648.90625,-262741.28125,-98922.296875,-267625.59375,-261731.515625,-388560.25,0.0673828125,1.002685546875,0.10205078125,-1.9531248807907104,-0.2136230319738388,0.5493163466453552,66.66667175292969,80937.0,1.0
416.9699496,-119592.65625,73734.7421875,-263541.21875,-260968.15625,-116148.1640625,-267096.375,-261491.546875,-387293.0625,0.0673828125,1.00244140625,0.102783203125,-1.9226073026657104,-0.3356933295726776,0.6103515028953552,66.66667175292969,80938.0,1.0
416.9730321,-124134.0859375,69369.265625,-263835.4375,-260291.078125,-125228.25,-267478.78125,-261647.390625,-387088.59375,0.067138671875,1.00390625,0.10009765625,-1.9836424589157104,-0.3356933295726776,0.6103515028953552,66.66667175292969,80939.0,1.0
416.9730382,-104456.0546875,82022.859375,-261957.1875,-262015.03125,-108673.203125,-268070.84375,-261920.796875,-388365.6875,0.06787109375,1.003662109375,0.10595703125,-2.014159917831421,-0.3662109076976776,0.6408690810203552,66.66667175292969,80940.0,1.0
416.9749499,-97809.09375,87895.828125,-261471.078125,-262875.84375,-97794.515625,-267739.21875,-261786.5,-388713.03125,0.070068359375,1.002685546875,0.102783203125,-2.044677495956421,-0.3356933295726776,0.7019042372703552,66.66667175292969,80941.0,1.0
416.9986681,-115938.5078125,76317.796875,-263245.625,-261321.140625,-112329.7734375,-267147.53125,-261526.515625,-387536.625,0.0693359375,1.001708984375,0.101318359375,-1.9531248807907104,-0.1831054538488388,0.6103515028953552,66.66667175292969,80942.0,1.0
416.9986739,-125351.8046875,68838.015625,-264011.125,-260219.375,-125470.5390625,-267377.5625,-261610.8125,-387014.40625,0.0703125,1.003173828125,0.099853515625,-1.9836424589157104,-0.2136230319738388,0.5798339247703552,66.66667175292969,80943.0,1.0
416.9986758,-107843.953125,79697.4765625,-262305.4375,-261679.484375,-112066.6484375,-268033.09375,-261907.734375,-388170.25,0.068603515625,1.002685546875,0.100341796875,-1.8310545682907104,-0.2441406100988388,0.5493163466453552,66.66667175292969,80944.0,1.0
417.0017992,-96727.8046875,88339.015625,-261368.796875,-262931.09375,-97465.59375,-267861.875,-261841.21875,-388817.90625,0.0673828125,1.00146484375,0.1005859375,-1.8615721464157104,-0.2746581733226776,0.5798339247703552,66.66667175292969,80945.0,1.0
417.001806,-112150.0625,78618.78125,-262907.3125,-261686.71875,-108666.765625,-267227.90625,-261571.21875,-387800.28125,0.06591796875,1.00439453125,0.100341796875,-1.8615721464157104,-0.1831054538488388,0.5798339247703552,66.66667175292969,80946.0,1.0
417.003711,-125863.21875,68481.1875,-264096.875,-260229.84375,-125030.125,-267282.4375,-261575.6875,-386990.875,0.068359375,1.003662109375,0.099609375,-1.9226073026657104,-0.1831054538488388,0.4882812201976776,66.66667175292969,80947.0,1.0
417.0062015,-111720.4609375,76852.6328125,-262677.96875,-261332.140625,-115649.0078125,-267959.53125,-261877.078125,-387951.125,0.06689453125,1.0029296875,0.1005859375,-1.8920897245407104,-0.1220703050494194,0.6103515028953552,66.66667175292969,80948.0,1.0
417.0086924,-96606.390625,87922.203125,-261345.109375,-262904.53125,-98241.9140625,-267968.5625,-261892.0,-388868.25,0.06982421875,1.002197265625,0.10302734375,-2.014159917831421,-0.1220703050494194,0.7019042372703552,66.66667175292969,80949.0,1.0
417.0149522,-108338.109375,80859.4921875,-262562.03125,-262044.796875,-105249.2734375,-267332.59375,-261626.375,-388071.1875,0.0693359375,1.0009765625,0.105224609375,-1.9531248807907104,-0.2136230319738388,0.6408690810203552,66.66667175292969,80950.0,1.0
417.0242865,-125570.140625,68580.7890625,-264101.53125,-260332.03125,-123857.90625,-267211.90625,-261552.703125,-387031.28125,0.06982421875,1.001220703125,0.10400390625,-2.044677495956421,-0.1831054538488388,0.6713866591453552,66.66667175292969,80951.0,1.0
417.0242939,-116040.3359375,74024.9609375,-263056.96875,-261003.203125,-119474.640625,-267867.34375,-261839.796875,-387734.125,0.069580078125,1.001953125,0.10498046875,-2.014159917831421,-0.2136230319738388,0.7324218153953552,66.66667175292969,80952.0,1.0
417.0262032,-97853.796875,87030.0078125,-261401.078125,-262797.34375,-100445.4375,-268065.5625,-261939.21875,-388865.3125,0.068603515625,1.0029296875,0.10302734375,-1.9531248807907104,-0.1220703050494194,0.6713866591453552,66.66667175292969,80953.0,1.0
417.0299654,-105012.703125,83401.875,-262222.90625,-262373.0,-102657.453125,-267460.53125,-261688.875,-388335.03125,0.068359375,1.003662109375,0.10400390625,-1.9531248807907104,-0.1525878757238388,0.6713866591453552,66.66667175292969,80954.0,1.0
417.0367945,-124394.078125,70062.53125,-264011.75,-260511.203125,-121925.8203125,-267163.53125,-261539.03125,-387127.59375,0.0673828125,1.002197265625,0.1015625,-2.014159917831421,-0.1831054538488388,0.5493163466453552,66.66667175292969,80955.0,1.0
417.0368013,-119620.1953125,72046.2890625,-263410.3125,-260715.859375,-122327.4375,-267762.1875,-261798.9375,-387534.03125,0.068115234375,1.003662109375,0.10107421875,-2.014159917831421,-0.2136230319738388,0.5187987685203552,66.66667175292969,80956.0,1.0
417.0424522,-99651.5,85846.171875,-261553.234375,-262608.34375,-102944.453125,-268127.25,-261972.109375,-388799.59375,0.0693359375,1.003173828125,0.101318359375,-1.9226073026657104,-0.2136230319738388,0.7019042372703552,66.66667175292969,80957.0,1.0
417.0461991,-102104.46875,85533.515625,-261942.703125,-262637.3125,-100453.0390625,-267585.71875,-261747.875,-388562.46875,0.068115234375,1.003662109375,0.101318359375,-1.9226073026657104,-0.1525878757238388,0.6103515028953552,66.66667175292969,80958.0,1.0
417.0530458,-122229.265625,72054.6953125,-263837.21875,-260772.359375,-119100.921875,-267152.71875,-261543.765625,-387288.34375,0.0693359375,1.0029296875,0.1025390625,-1.8920897245407104,-0.2136230319738388,0.7019042372703552,66.66667175292969,80959.0,1.0
417.0530526,-122330.5703125,70612.3828125,-263705.53125,-260497.25,-124168.0625,-267649.8125,-261754.234375,-387370.59375,0.069091796875,1.0048828125,0.1025390625,-1.8005369901657104,-0.2136230319738388,0.6408690810203552,66.66667175292969,80960.0,1.0
417.0549597,-101918.234375,84153.9609375,-261779.53125,-262353.4375,-105684.59375,-268150.5,-261988.296875,-388680.5,0.06884765625,1.00390625,0.10302734375,-1.8005369901657104,-0.1525878757238388,0.5798339247703552,66.66667175292969,80961.0,1.0
417.0686966,-99417.2578125,87201.7578125,-261704.78125,-262836.5,-98627.6171875,-267706.59375,-261804.296875,-388753.71875,0.069091796875,1.00390625,0.102783203125,-1.8615721464157104,-0.1831054538488388,0.6408690810203552,66.66667175292969,80962.0,1.0
417.0717861,-118992.734375,74368.015625,-263588.5,-261087.4375,-115596.8828125,-267173.53125,-261563.34375,-387495.21875,0.06787109375,1.00146484375,0.1015625,-1.9226073026657104,-0.1525878757238388,0.6103515028953552,66.66667175292969,80963.0,1.0
417.0717923,-124258.0,69557.734375,-263945.59375,-260352.0625,-125201.6015625,-267543.34375,-261715.15625,-387250.6875,0.0693359375,1.001953125,0.09765625,-1.9226073026657104,-0.2136230319738388,0.6103515028953552,66.66667175292969,80964.0,1.0
417.0736925,-104860.265625,82025.8125,-262080.65625,-262044.4375,-108912.9921875,-268143.34375,-261990.265625,-388513.65625,0.070068359375,1.003173828125,0.099365234375,-1.8310545682907104,-0.1525878757238388,0.6713866591453552,66.66667175292969,80965.0,1.0
417.0762135,-97622.3203125,88126.4921875,-261535.71875,-262962.375,-97570.375,-267832.65625,-261862.953125,-388902.3125,0.070068359375,1.002685546875,0.102783203125,-1.9531248807907104,-0.2441406100988388,0.6408690810203552,66.66667175292969,80966.0,1.0
417.0849527,-115451.328125,76568.140625,-263280.9375,-261443.1875,-111946.5703125,-267229.875,-261599.546875,-387741.4375,0.068603515625,1.002685546875,0.10595703125,-2.105712652206421,-0.2136230319738388,0.7629393935203552,66.66667175292969,80967.0,1.0
417.0892928,-125534.8203125,68680.03125,-264105.8125,-260290.90625,-125543.2265625,-267441.59375,-261678.328125,-387181.0625,0.067626953125,1.00439453125,0.104248046875,-1.9836424589157104,-0.2136230319738388,0.7019042372703552,66.66667175292969,80968.0,1.0
417.0893,-108505.296875,79240.15625,-262433.09375,-261707.296875,-112559.0078125,-268102.21875,-261976.5,-388314.1875,0.069091796875,1.00244140625,0.10009765625,-1.9226073026657104,-0.2746581733226776,0.6713866591453552,66.66667175292969,80969.0,1.0
417.097885,-96740.234375,88264.6328125,-261441.578125,-263008.59375,-97571.09375,-267952.8125,-261920.078125,-389001.65625,0.0693359375,1.005126953125,0.099609375,-1.9836424589157104,-0.2136230319738388,0.6713866591453552,66.66667175292969,80970.0,1.0
417.0978919,-111627.2109375,78891.0234375,-262938.25,-261812.703125,-108274.71875,-267318.21875,-261649.4375,-388010.65625,0.068115234375,1.004638671875,0.10205078125,-1.9836424589157104,-0.1831054538488388,0.6713866591453552,66.66667175292969,80971.0,1.0
417.1037101,-125998.3984375,68311.4921875,-264180.90625,-260313.96875,-125078.4921875,-267351.1875,-261644.890625,-387166.28125,0.068115234375,1.002685546875,0.104736328125,-1.9226073026657104,-0.2746581733226776,0.5798339247703552,66.66667175292969,80972.0,1.0
417.1062035,-112695.3515625,76375.828125,-262808.15625,-261359.5,-116494.2578125,-268027.46875,-261945.109375,-388093.4375,0.06787109375,1.001708984375,0.103759765625,-1.8920897245407104,-0.2441406100988388,0.5798339247703552,66.66667175292969,80973.0,1.0
417.1086937,-97017.84375,87949.5625,-261422.96875,-262971.0625,-98831.7265625,-268062.53125,-261970.59375,-389045.0,0.069580078125,1.001708984375,0.10107421875,-1.9531248807907104,-0.2441406100988388,0.5798339247703552,66.66667175292969,80974.0,1.0
417.1124495,-107955.7109375,81603.359375,-262589.65625,-262172.5625,-105072.6953125,-267431.3125,-261709.078125,-388285.9375,0.069091796875,1.0048828125,0.103515625,-1.9836424589157104,-0.1525878757238388,0.4882812201976776,66.66667175292969,80975.0,1.0
417.1242784,-125442.5546875,69290.5,-264168.03125,-260427.609375,-123648.6015625,-267283.875,-261623.609375,-387214.84375,0.06591796875,1.003662109375,0.103271484375,-1.9836424589157104,-0.1525878757238388,0.5798339247703552,66.66667175292969,80976.0,1.0
417.1242858,-116289.3359375,74153.6171875,-263177.6875,-261030.390625,-119546.703125,-267932.15625,-261909.4375,-387875.75,0.0673828125,1.0029296875,0.104736328125,-1.8920897245407104,-0.1525878757238388,0.6408690810203552,66.66667175292969,80977.0,1.0
417.126784,-97678.6484375,87185.84375,-261477.875,-262849.71875,-100229.1640625,-268156.03125,-262023.96875,-389036.59375,0.067138671875,1.00341796875,0.103271484375,-1.9836424589157104,-0.1220703050494194,0.6713866591453552,66.66667175292969,80978.0,1.0
417.1267897,-104300.484375,83740.3671875,-262246.25,-262492.375,-101941.390625,-267559.96875,-261777.109375,-388548.53125,0.068359375,1.00390625,0.103759765625,-1.9531248807907104,-0.0915527269244194,0.7324218153953552,66.66667175292969,80979.0,1.0
417.1349507,-123908.421875,70218.3671875,-264057.875,-260623.59375,-121370.6015625,-267243.8125,-261618.15625,-387326.78125,0.068115234375,1.00439453125,0.099853515625,-1.9226073026657104,-0.0610351525247097,0.6408690810203552,66.66667175292969,80980.0,1.0
417.1374396,-119929.9921875,71692.6875,-263524.9375,-260757.34375,-122479.6953125,-267824.0625,-261867.6875,-387683.53125,0.068115234375,1.002685546875,0.1015625,-1.8920897245407104,-0.0915527269244194,0.6408690810203552,66.66667175292969,80981.0,1.0
417.1436945,-99877.34375,85523.859375,-261657.9375,-262653.03125,-103202.125,-268211.75,-262051.5,-388961.15625,0.070068359375,1.003173828125,0.101806640625,-1.9531248807907104,-0.0915527269244194,0.6103515028953552,66.66667175292969,80982.0,1.0
417.1505344,-101585.640625,85698.203125,-261982.75,-262748.25,-100095.046875,-267686.65625,-261833.796875,-388768.8125,0.070556640625,1.00341796875,0.10498046875,-1.9531248807907104,-0.0610351525247097,0.6713866591453552,66.66667175292969,80983.0,1.0
417.1505417,-121711.0625,72255.859375,-263884.0,-260891.8125,-118594.609375,-267238.375,-261625.125,-387491.75,0.069091796875,1.00146484375,0.101806640625,-1.8920897245407104,-0.1831054538488388,0.5798339247703552,66.66667175292969,80984.0,1.0
417.1530284,-122580.28125,70321.1875,-263824.4375,-260550.28125,-124309.859375,-267718.375,-261828.53125,-387527.3125,0.06982421875,1.003173828125,0.10009765625,-1.8920897245407104,-0.2136230319738388,0.5493163466453552,66.66667175292969,80985.0,1.0
417.1530345,-102233.21875,83760.75,-261898.53125,-262389.28125,-106062.96875,-268232.375,-262067.25,-388833.75,0.067626953125,1.004150390625,0.1015625,-1.8920897245407104,-0.2441406100988388,0.7324218153953552,66.66667175292969,80986.0,1.0
417.166201,-99037.453125,87281.6015625,-261754.046875,-262933.78125,-98376.6484375,-267801.90625,-261888.609375,-388949.6875,0.070556640625,1.003173828125,0.101318359375,-2.014159917831421,-0.1831054538488388,0.6713866591453552,66.66667175292969,80987.0,1.0
417.173668,-118416.5078125,74608.3359375,-263626.15625,-261211.078125,-115037.1015625,-267261.96875,-261644.703125,-387701.40625,0.0703125,1.0029296875,0.1025390625,-1.8615721464157104,-0.2441406100988388,0.5493163466453552,66.66667175292969,80988.0,1.0
417.1736748,-124390.328125,69354.6015625,-264048.3125,-260412.5,-125216.359375,-267607.53125,-261784.625,-387408.84375,0.068115234375,1.002685546875,0.10205078125,-1.8005369901657104,-0.2136230319738388,0.6713866591453552,66.66667175292969,80989.0,1.0
417.1736773,-105266.7109375,81601.84375,-262204.75,-262074.125,-109304.328125,-268219.34375,-262064.828125,-388659.9375,0.06787109375,1.0029296875,0.10595703125,-1.9226073026657104,-0.1525878757238388,0.6103515028953552,66.66667175292969,80990.0,1.0
417.178026,-97380.3828125,88111.296875,-261596.25,-263049.125,-97428.484375,-267933.3125,-261947.890625,-389092.40625,0.068603515625,1.001953125,0.1044921875,-1.9226073026657104,-0.1831054538488388,0.6408690810203552,66.66667175292969,80991.0,1.0
417.1780316,-114884.0390625,76804.4453125,-263315.28125,-261571.03125,-111348.2578125,-267325.53125,-261685.390625,-387953.15625,0.0703125,1.001708984375,0.103515625,-1.9531248807907104,-0.3356933295726776,0.6408690810203552,66.66667175292969,80992.0,1.0
417.186197,-125574.609375,68538.0546875,-264199.15625,-260364.21875,-125434.8671875,-267508.375,-261749.578125,-387348.78125,0.06884765625,1.00146484375,0.102294921875,-1.9836424589157104,-0.1831054538488388,0.7019042372703552,66.66667175292969,80993.0,1.0
417.1905254,-108949.7421875,78775.6875,-262561.84375,-261735.09375,-112985.3046875,-268174.28125,-262049.8125,-388457.78125,0.06884765625,1.00146484375,0.102783203125,-2.014159917831421,-0.0915527269244194,0.6713866591453552,66.66667175292969,80994.0,1.0
417.190532,-96628.7421875,88133.2890625,-261511.3125,-263082.1875,-97564.203125,-268051.53125,-262004.125,-389182.96875,0.0673828125,1.0009765625,0.101318359375,-1.9836424589157104,-0.1525878757238388,0.6408690810203552,66.66667175292969,80995.0,1.0
417.2062055,-111026.5703125,79091.1171875,-262968.8125,-261937.515625,-107758.8359375,-267416.0,-261735.984375,-388221.75,0.068115234375,1.002197265625,0.10302734375,-1.9226073026657104,-0.1831054538488388,0.6408690810203552,66.66667175292969,80996.0,1.0
417.209876,-125946.0078125,68189.0078125,-264263.0,-260400.25,-124935.8828125,-267422.0,-261719.625,-387342.6875,0.068603515625,1.002685546875,0.100341796875,-1.9836424589157104,-0.2136230319738388,0.6408690810203552,66.66667175292969,80997.0,1.0
417.2098827,-113235.640625,75890.6171875,-262933.40625,-261388.640625,-117025.0703125,-268098.375,-262021.640625,-388237.9375,0.070556640625,1.00341796875,0.099609375,-2.014159917831421,-0.1831054538488388,0.7019042372703552,66.66667175292969,80998.0,1.0
417.2098851,-97055.8359375,87750.0,-261494.046875,-263039.09375,-99042.90625,-268169.1875,-262066.265625,-389228.5625,0.068359375,1.00341796875,0.100830078125,-2.044677495956421,-0.1831054538488388,0.7019042372703552,66.66667175292969,80999.0,1.0
417.2130237,-107409.96875,81849.3203125,-262607.625,-262301.9375,-104604.7421875,-267540.90625,-261804.828125,-388505.875,0.069580078125,1.002685546875,0.100341796875,-1.9531248807907104,-0.1525878757238388,0.6713866591453552,66.66667175292969,81000.0,1.0
417.2130293,-125290.5625,69319.9140625,-264235.71875,-260532.484375,-123397.015625,-267363.625,-261706.84375,-387407.96875,0.070068359375,1.001953125,0.10009765625,-2.014159917831421,-0.1831054538488388,0.6408690810203552,66.66667175292969,81001.0,1.0
417.2286983,-116800.1171875,73750.296875,-263313.40625,-261075.890625,-119974.9609375,-268002.25,-261984.71875,-388029.0625,0.069580078125,1.00341796875,0.102294921875,-1.9531248807907104,-0.1525878757238388,0.6408690810203552,66.66667175292969,81002.0,1.0
417.231782,-97979.4140625,86918.4296875,-261595.53125,-262904.53125,-100695.421875,-268239.53125,-262102.828125,-389201.03125,0.06884765625,1.0029296875,0.1025390625,-1.9531248807907104,-0.3051757514476776,0.6408690810203552,66.66667175292969,81003.0,1.0
417.2317882,-103881.2578125,84138.3203125,-262308.5625,-262597.59375,-101755.6953125,-267651.15625,-261860.625,-388745.21875,0.067626953125,1.003662109375,0.1025390625,-1.9226073026657104,-0.1831054538488388,0.6408690810203552,66.66667175292969,81004.0,1.0
417.2337103,-123512.3515625,70758.296875,-264132.46875,-260729.0,-120940.46875,-267325.28125,-261697.1875,-387516.78125,0.069580078125,1.0048828125,0.1025390625,-1.8615721464157104,-0.1220703050494194,0.6408690810203552,66.66667175292969,81005.0,1.0
417.2374399,-119914.8828125,71847.8046875,-263652.59375,-260804.640625,-122349.0703125,-267893.90625,-261941.53125,-387835.78125,0.069091796875,1.00537109375,0.102294921875,-1.8920897245407104,-0.1220703050494194,0.6408690810203552,66.66667175292969,81006.0,1.0
417.2467851,-99689.5859375,85529.671875,-261766.921875,-262699.4375,-102982.71875,-268299.625,-262135.109375,-389122.4375,0.069580078125,1.00390625,0.1044921875,-1.9226073026657104,-0.2136230319738388,0.6103515028953552,66.66667175292969,81007.0,1.0
417.2467922,-100950.3203125,85810.2265625,-262031.75,-262849.03125,-99394.1015625,-267784.375,-261920.796875,-388966.15625,0.06982421875,1.0029296875,0.103515625,-1.9531248807907104,-0.3051757514476776,0.6713866591453552,66.66667175292969,81008.0,1.0
417.2486992,-121149.765625,72230.203125,-263936.21875,-261002.3125,-117934.6953125,-267318.28125,-261703.0,-387686.75,0.067138671875,1.001708984375,0.10205078125,-1.9226073026657104,-0.1525878757238388,0.5187987685203552,66.66667175292969,81009.0,1.0
417.2630317,-122854.8515625,69812.1875,-263936.125,-260603.375,-124485.0078125,-267781.40625,-261897.8125,-387681.5625,0.06787109375,1.00146484375,0.1015625,-1.8005369901657104,-0.2136230319738388,0.6103515028953552,66.66667175292969,81010.0,1.0
417.2630391,-102704.2109375,83295.2109375,-262013.0625,-262428.90625,-106623.4609375,-268317.875,-262146.71875,-388988.78125,0.071533203125,1.001953125,0.104736328125,-1.9226073026657104,-0.1525878757238388,0.6713866591453552,66.66667175292969,81011.0,1.0
417.2661194,-98934.28125,87229.3828125,-261811.453125,-263030.59375,-98351.2578125,-267912.125,-261979.171875,-389147.28125,0.0703125,1.003173828125,0.10107421875,-1.9226073026657104,-0.2136230319738388,0.6713866591453552,66.66667175292969,81012.0,1.0
417.266125,-118176.984375,74727.96875,-263671.125,-261332.671875,-114627.9765625,-267352.96875,-261729.734375,-387907.125,0.06982421875,1.003662109375,0.100341796875,-1.9226073026657104,-0.2136230319738388,0.7324218153953552,66.66667175292969,81013.0,1.0
417.2661273,-124711.4765625,69087.8125,-264157.5625,-260482.421875,-125393.3828125,-267677.53125,-261861.0625,-387576.125,0.06884765625,1.001220703125,0.10107421875,-1.9836424589157104,-0.2136230319738388,0.5798339247703552,66.66667175292969,81014.0,1.0
417.2699462,-105801.984375,81120.203125,-262330.09375,-262112.578125,-109899.421875,-268301.78125,-262146.09375,-388813.4375,0.06787109375,1.0009765625,0.101318359375,-1.9531248807907104,-0.3051757514476776,0.6408690810203552,66.66667175292969,81015.0,1.0
417.2737105,-97346.59375,88015.8125,-261658.203125,-263133.78125,-97503.140625,-268033.71875,-262036.3125,-389281.3125,0.0673828125,1.002685546875,0.102783203125,-1.9226073026657104,-0.2746581733226776,0.6713866591453552,66.66667175292969,81016.0,1.0
417.2874414,-114539.9140625,76959.4765625,-263350.59375,-261693.515625,-110951.921875,-267418.34375,-261770.328125,-388160.5,0.06689453125,1.001953125,0.102783203125,-1.9226073026657104,-0.2441406100988388,0.6408690810203552,66.66667175292969,81017.0,1.0
417.2905308,-125897.90625,68238.8046875,-264293.84375,-260440.484375,-125634.15625,-267575.34375,-261822.625,-387518.84375,0.068603515625,1.004638671875,0.101318359375,-1.9531248807907104,-0.2136230319738388,0.6103515028953552,66.66667175292969,81018.0,1.0
417.2905372,-109899.2421875,78293.3359375,-262689.4375,-261766.5625,-113918.4453125,-268246.875,-262123.84375,-388603.875,0.070068359375,1.00390625,0.102783203125,-1.8310545682907104,-0.2746581733226776,0.6408690810203552,66.66667175292969,81019.0,1.0
417.2924441,-96974.75,88173.703125,-261585.421875,-263157.1875,-98161.625,-268156.3125,-262092.984375,-389366.59375,0.06884765625,1.004150390625,0.10107421875,-1.9531248807907104,-0.2136230319738388,0.6103515028953552,66.66667175292969,81020.0,1.0
417.3080281,-110819.8671875,79743.3359375,-263003.34375,-262059.109375,-107580.6484375,-267514.71875,-261823.078125,-388430.34375,0.066650390625,1.001953125,0.10595703125,-1.9836424589157104,-0.2136230319738388,0.6713866591453552,66.66667175292969,81021.0,1.0
417.3080353,-126041.671875,68736.8046875,-264349.53125,-260484.46875,-124861.859375,-267489.6875,-261791.875,-387518.125,0.068603515625,1.002685546875,0.104248046875,-1.9531248807907104,-0.1831054538488388,0.7324218153953552,66.66667175292969,81022.0,1.0
417.3105349,-113563.046875,75917.796875,-263066.53125,-261417.875,-117274.78125,-268166.9375,-262095.3125,-388383.03125,0.06689453125,1.00390625,0.102294921875,-1.9531248807907104,-0.1831054538488388,0.6713866591453552,66.66667175292969,81023.0,1.0
417.3105471,-96961.15625,87854.1640625,-261576.578125,-263097.9375,-98934.90625,-268264.03125,-262153.15625,-389402.90625,0.0673828125,1.003662109375,0.102294921875,-2.044677495956421,-0.0915527269244194,0.6408690810203552,66.66667175292969,81024.0,1.0
417.3124477,-106985.375,82026.796875,-262651.34375,-262406.90625,-104145.1875,-267633.90625,-261890.21875,-388705.25,0.068115234375,1.00390625,0.10205078125,-2.044677495956421,-0.1220703050494194,0.6408690810203552,66.66667175292969,81025.0,1.0
417.318694,-125196.7734375,69229.34375,-264307.96875,-260620.8125,-123191.828125,-267432.46875,-261779.078125,-387586.875,0.068603515625,1.00244140625,0.103515625,-1.9531248807907104,-0.1525878757238388,0.6103515028953552,66.66667175292969,81026.0,1.0
417.3230395,-117527.53125,73281.359375,-263436.6875,-261109.421875,-120604.7421875,-268065.03125,-262054.1875,-388173.71875,0.068359375,1.00244140625,0.10107421875,-1.8310545682907104,-0.1831054538488388,0.6408690810203552,66.66667175292969,81027.0,1.0
417.3230467,-98513.3515625,86677.921875,-261685.921875,-262954.6875,-101295.96875,-268338.15625,-262186.25,-389367.125,0.0693359375,1.003662109375,0.101318359375,-1.8920897245407104,-0.1831054538488388,0.6408690810203552,66.66667175292969,81028.0,1.0
417.3311948,-103752.421875,84353.5234375,-262338.3125,-262709.375,-101717.515625,-267757.90625,-261946.09375,-388950.21875,0.0693359375,1.0029296875,0.1025390625,-1.9531248807907104,-0.1831054538488388,0.6103515028953552,66.66667175292969,81029.0,1.0
417.3342762,-123531.03125,70921.734375,-264188.15625,-260838.171875,-120857.8515625,-267399.65625,-261771.9375,-387709.8125,0.068603515625,1.002685546875,0.104248046875,-1.9836424589157104,-0.2136230319738388,0.6103515028953552,66.66667175292969,81030.0,1.0
417.3342825,-120645.2421875,71536.5859375,-263775.4375,-260849.25,-122965.7109375,-267955.0625,-262009.578125,-387986.25,0.069580078125,1.002685546875,0.104736328125,-1.9531248807907104,-0.2136230319738388,0.6408690810203552,66.66667175292969,81031.0,1.0
417.3449429,-100285.9375,85277.0078125,-261868.671875,-262740.46875,-103722.109375,-268382.0625,-262212.25,-389280.15625,0.070556640625,1.002685546875,0.102783203125,-1.9226073026657104,-0.2136230319738388,0.5493163466453552,66.66667175292969,81032.0,1.0
417.3474619,-100678.7890625,86330.3984375,-262066.078125,-262954.59375,-99381.40625,-267879.15625,-262006.0,-389167.65625,0.0693359375,1.002685546875,0.101806640625,-1.9226073026657104,-0.1525878757238388,0.6713866591453552,66.66667175292969,81033.0,1.0
417.3499606,-120754.4140625,72995.8828125,-263980.1875,-261124.71875,-117539.421875,-267403.40625,-261784.1875,-387890.75,0.068115234375,1.003662109375,0.101806640625,-1.8920897245407104,-0.2136230319738388,0.6103515028953552,66.66667175292969,81034.0,1.0
417.352947,-123009.8828125,70182.2421875,-264052.53125,-260661.671875,-124462.296875,-267846.25,-261969.25,-387840.59375,0.06982421875,1.003662109375,0.098876953125,-1.8920897245407104,-0.2746581733226776,0.6408690810203552,66.66667175292969,81035.0,1.0
417.3611967,-102882.7578125,83364.0546875,-262130.453125,-262463.75,-106659.671875,-268398.34375,-262224.5,-389141.28125,0.068359375,1.00146484375,0.097412109375,-1.8615721464157104,-0.2746581733226776,0.7019042372703552,66.66667175292969,81036.0,1.0
417.3642994,-98488.40625,87482.3203125,-261858.125,-263124.9375,-97886.34375,-268014.0625,-262066.796875,-389343.0,0.06689453125,1.002197265625,0.098388671875,-1.8920897245407104,-0.1831054538488388,0.7629393935203552,66.66667175292969,81037.0,1.0
417.3643107,-117531.109375,74959.796875,-263704.1875,-261457.3125,-114097.6171875,-267440.78125,-261811.890625,-388114.625,0.068115234375,1.00244140625,0.099609375,-1.9531248807907104,-0.1831054538488388,0.6713866591453552,66.66667175292969,81038.0,1.0
417.3724483,-124815.3671875,68881.28125,-264257.28125,-260545.890625,-125399.7265625,-267736.53125,-261927.671875,-387736.4375,0.068359375,1.002197265625,0.098388671875,-1.8920897245407104,-0.2441406100988388,0.6713866591453552,66.66667175292969,81039.0,1.0
417.3792734,-106240.53125,80666.109375,-262451.59375,-262138.5,-110292.1875,-268372.84375,-262216.71875,-388957.03125,0.068115234375,1.003173828125,0.100830078125,-1.8310545682907104,-0.3051757514476776,0.5798339247703552,66.66667175292969,81040.0,1.0
417.379279,-97123.875,87956.3515625,-261717.484375,-263215.40625,-97402.2890625,-268134.75,-262122.40625,-389469.25,0.068603515625,1.003173828125,0.102294921875,-1.8920897245407104,-0.2136230319738388,0.6408690810203552,66.66667175292969,81041.0,1.0
417.381773,-113889.8359375,77182.9921875,-263379.65625,-261816.1875,-110436.3125,-267509.90625,-261853.46875,-388368.46875,0.0673828125,1.001220703125,0.105224609375,-1.9226073026657104,-0.1220703050494194,0.6713866591453552,66.66667175292969,81042.0,1.0
417.3817789,-125924.1015625,68086.0078125,-264383.6875,-260517.28125,-125572.1953125,-267641.6875,-261893.609375,-387688.875,0.06640625,1.001708984375,0.100830078125,-1.8615721464157104,-0.1525878757238388,0.6408690810203552,66.66667175292969,81043.0,1.0
417.3924444,-110461.609375,77838.1640625,-262812.375,-261793.828125,-114406.875,-268319.46875,-262199.125,-388748.34375,0.069580078125,1.003662109375,0.099365234375,-1.8615721464157104,-0.0915527269244194,0.7324218153953552,66.66667175292969,81044.0,1.0
417.3967843,-96902.6875,88086.6171875,-261638.984375,-263232.5625,-98195.421875,-268261.28125,-262185.4375,-389553.375,0.069091796875,1.00390625,0.101806640625,-1.8005369901657104,-0.2441406100988388,0.7629393935203552,66.66667175292969,81045.0,1.0
