Time,FZ,C3,CZ,C4,PZ,PO7,OZ,PO8,AccX,AccY,AccZ,Gyro1,Gyro2,Gyro3,Battery,Counter,Validation
629.4683561,124587.734375,124696.6328125,125318.28125,124887.25,124820.4609375,124913.7109375,125098.15625,125211.8828125,0.070068359375,1.004150390625,0.100341796875,-1.8920897245407104,-0.3051757514476776,0.7324218153953552,66.66667175292969,2130.0,1.0
629.4683648,124062.5625,124171.3671875,124792.5703125,124361.890625,124295.015625,124388.0859375,124572.5390625,124686.3515625,0.069580078125,1.005859375,0.099853515625,-1.9226073026657104,-0.1525878757238388,0.7019042372703552,66.66667175292969,2131.0,1.0
629.4782856,124997.578125,125106.8359375,125729.1015625,125297.5390625,125230.6640625,125324.2734375,125508.71875,125622.53125,0.06787109375,1.004150390625,0.10107421875,-1.9226073026657104,-0.2746581733226776,0.6408690810203552,66.66667175292969,2132.0,1.0
629.4782933,125686.28125,125795.0,126417.984375,125986.328125,125919.1875,126013.2421875,126197.59375,126311.4140625,0.0693359375,1.00341796875,0.101318359375,-1.8920897245407104,-0.2441406100988388,0.7324218153953552,66.66667175292969,2133.0,1.0
629.478297,124918.359375,125026.6328125,125649.3515625,125217.875,125150.90625,125244.6953125,125429.3203125,125542.8671875,0.06884765625,1.001953125,0.101806640625,-1.9531248807907104,-0.1525878757238388,0.7019042372703552,66.66667175292969,2134.0,1.0
629.4783006,124170.5625,124278.65625,124900.75,124469.5390625,124402.75,124496.5390625,124680.359375,124794.53125,0.0693359375,1.001708984375,0.1044921875,-1.9226073026657104,-0.1831054538488388,0.7019042372703552,66.66667175292969,2135.0,1.0
629.4808458,124918.8984375,125027.2578125,125649.7109375,125218.4140625,125151.625,125245.59375,125429.5,125543.5859375,0.067626953125,1.0029296875,0.10302734375,-1.9226073026657104,-0.1220703050494194,0.5493163466453552,66.66667175292969,2136.0,1.0
629.4808517,125805.9921875,125914.7109375,126537.34375,126105.6015625,126038.6328125,126132.953125,126317.1328125,126430.953125,0.070068359375,1.002685546875,0.1044921875,-1.8920897245407104,-0.0915527269244194,0.6408690810203552,66.66667175292969,2137.0,1.0
629.4928005,125246.21875,125354.7578125,125977.4765625,125546.1796875,125478.9453125,125572.640625,125757.265625,125870.90625,0.06884765625,1.00146484375,0.099853515625,-1.8615721464157104,-0.1525878757238388,0.6713866591453552,66.66667175292969,2138.0,1.0
629.4952787,124330.15625,124437.796875,125060.34375,124629.3984375,124562.2578125,124655.953125,124840.1328125,124953.9453125,0.068603515625,1.00244140625,0.099365234375,-1.9836424589157104,-0.0915527269244194,0.7629393935203552,66.66667175292969,2139.0,1.0
629.4977952,124842.1875,124950.546875,125572.9140625,125141.703125,125074.828125,125168.5234375,125352.8828125,125466.6953125,0.06884765625,1.002685546875,0.099365234375,-1.9531248807907104,-0.1831054538488388,0.7019042372703552,66.66667175292969,2140.0,1.0
629.5002685,125875.109375,125984.359375,126607.171875,126175.515625,126108.4609375,126202.6953125,126386.875,126500.6015625,0.069580078125,1.002197265625,0.09912109375,-1.9531248807907104,-0.1220703050494194,0.6713866591453552,66.66667175292969,2141.0,1.0
629.5040175,125560.390625,125669.46875,126291.7421875,125860.625,125793.390625,125887.3515625,126071.53125,126185.703125,0.06982421875,1.00244140625,0.101318359375,-1.8920897245407104,-0.2136230319738388,0.7019042372703552,66.66667175292969,2142.0,1.0
629.5108673,124542.9453125,124651.6640625,125273.3046875,124842.1875,124775.046875,124868.6484375,125053.1015625,125167.1796875,0.069091796875,1.00439453125,0.101318359375,-1.8920897245407104,-0.2136230319738388,0.7019042372703552,66.66667175292969,2143.0,1.0
629.5108757,124787.9140625,124896.90625,125519.1796875,125087.4296875,125020.2890625,125114.34375,125298.609375,125412.421875,0.0673828125,1.004638671875,0.10400390625,-1.8920897245407104,-0.0915527269244194,0.7019042372703552,66.66667175292969,2144.0,1.0
629.5165327,125897.8125,126006.984375,126630.0625,126198.2265625,126131.171875,126225.1328125,126409.671875,126523.3046875,0.067138671875,1.00439453125,0.10302734375,-1.8615721464157104,-0.1831054538488388,0.5493163466453552,66.66667175292969,2145.0,1.0
629.5233531,125849.0859375,125958.34375,126580.9765625,126149.140625,126082.53125,126176.5,126361.03125,126474.578125,0.065673828125,1.005126953125,0.1015625,-1.9531248807907104,-0.2136230319738388,0.5493163466453552,66.66667175292969,2146.0,1.0
629.5233613,124796.59375,124905.3125,125527.2265625,125095.921875,125029.2265625,125122.921875,125307.375,125421.1875,0.066650390625,1.002685546875,0.101806640625,-1.9226073026657104,-0.1831054538488388,0.5798339247703552,66.66667175292969,2147.0,1.0
629.5252747,124764.5859375,124873.03125,125495.484375,125063.9140625,124996.859375,125090.9140625,125274.9140625,125389.0,0.067138671875,1.001953125,0.104248046875,-1.8920897245407104,-0.2136230319738388,0.5798339247703552,66.66667175292969,2148.0,1.0
629.5446023,125881.546875,125990.265625,126613.34375,126181.5078125,126114.359375,126208.859375,126392.953125,126506.859375,0.0673828125,1.003662109375,0.10302734375,-1.9226073026657104,-0.2441406100988388,0.6103515028953552,66.66667175292969,2149.0,1.0
629.5446105,126102.0234375,126210.6484375,126834.0,126402.0703125,126335.015625,126429.609375,126613.7890625,126727.6015625,0.06787109375,1.00244140625,0.100830078125,-1.9531248807907104,-0.2136230319738388,0.6408690810203552,66.66667175292969,2150.0,1.0
629.5471059,125087.1640625,125195.4375,125817.9765625,125386.5,125319.890625,125413.6796875,125598.03125,125712.03125,0.069580078125,1.004150390625,0.098876953125,-1.9531248807907104,-0.2136230319738388,0.6713866591453552,66.66667175292969,2151.0,1.0
629.5471144,124782.015625,124890.5546875,125512.921875,125081.3515625,125014.8359375,125108.3515625,125292.9765625,125407.0625,0.07080078125,1.00390625,0.098388671875,-2.044677495956421,-0.3356933295726776,0.7324218153953552,66.66667175292969,2152.0,1.0
629.5490217,125830.8515625,125939.9296875,126562.2890625,126131.171875,126063.84375,126157.8984375,126342.703125,126456.4296875,0.069091796875,1.00341796875,0.098876953125,-1.9531248807907104,-0.2441406100988388,0.7019042372703552,66.66667175292969,2153.0,1.0
629.5515342,126310.4296875,126419.59375,127042.3125,126610.8359375,126543.6015625,126637.75,126822.734375,126936.3671875,0.069580078125,1.002685546875,0.101318359375,-2.044677495956421,-0.2441406100988388,0.6103515028953552,66.66667175292969,2154.0,1.0
629.5552765,125401.25,125509.8828125,126132.5078125,125701.2109375,125634.0625,125727.8515625,125912.75,126026.46875,0.069091796875,1.00341796875,0.1025390625,-1.9836424589157104,-0.2441406100988388,0.5798339247703552,66.66667175292969,2155.0,1.0
629.5640153,124843.53125,124951.9765625,125574.5234375,125143.0390625,125075.984375,125169.953125,125354.671875,125468.21875,0.068603515625,1.00341796875,0.10009765625,-1.9836424589157104,-0.2441406100988388,0.6408690810203552,66.66667175292969,2156.0,1.0
629.5683554,125753.421875,125862.5,126485.21875,126053.7421875,125986.59375,126080.7421875,126265.1015625,126378.734375,0.068115234375,1.00537109375,0.101806640625,-1.9226073026657104,-0.2441406100988388,0.6713866591453552,66.66667175292969,2157.0,1.0
629.5683643,126469.75,126578.921875,127202.171875,126770.609375,126703.015625,126797.7890625,126982.140625,127095.2421875,0.069580078125,1.003662109375,0.100341796875,-1.8920897245407104,-0.2746581733226776,0.7324218153953552,66.66667175292969,2158.0,1.0
629.5771125,125727.8515625,125837.2890625,126459.828125,126028.3515625,125960.7578125,126055.171875,126239.890625,126353.1640625,0.06884765625,1.0029296875,0.096435546875,-2.014159917831421,-0.2746581733226776,0.7629393935203552,66.66667175292969,2159.0,1.0
629.5771224,124958.1484375,125066.953125,125689.2265625,125258.0234375,125190.6953125,125284.84375,125469.734375,125583.1015625,0.06884765625,1.003662109375,0.098876953125,-2.014159917831421,-0.2441406100988388,0.7629393935203552,66.66667175292969,2160.0,1.0
629.5790299,125674.4765625,125783.1953125,126406.1875,125974.5234375,125907.46875,126001.53125,126185.8828125,126299.703125,0.0673828125,1.004638671875,0.099853515625,-1.9531248807907104,-0.2746581733226776,0.7324218153953552,66.66667175292969,2161.0,1.0
629.5827997,126582.4921875,126691.6640625,127315.0078125,126883.2578125,126816.0234375,126910.2578125,127094.9765625,127208.34375,0.0673828125,1.002685546875,0.103271484375,-1.9531248807907104,-0.2441406100988388,0.7019042372703552,66.66667175292969,2162.0,1.0
629.591374,126054.9921875,126163.890625,126786.96875,126355.4921875,126288.34375,126382.2265625,126567.1171875,126680.3984375,0.0693359375,1.001953125,0.100830078125,-2.014159917831421,-0.1220703050494194,0.7324218153953552,66.66667175292969,2163.0,1.0
629.599598,125121.8515625,125230.84375,125853.2890625,125421.8125,125355.1171875,125448.6328125,125633.2578125,125747.078125,0.069580078125,1.0029296875,0.104248046875,-1.9226073026657104,-0.1831054538488388,0.6713866591453552,66.66667175292969,2164.0,1.0
629.5996055,125598.484375,125707.46875,126329.921875,125898.53125,125831.7421875,125925.625,126110.15625,126223.96875,0.067626953125,1.003173828125,0.10595703125,-1.9226073026657104,-0.2441406100988388,0.7019042372703552,66.66667175292969,2165.0,1.0
629.6015179,126648.1171875,126757.4609375,127380.2734375,126948.9765625,126881.6484375,126976.0625,127160.421875,127274.1484375,0.06787109375,1.0029296875,0.103759765625,-1.9836424589157104,-0.2441406100988388,0.7324218153953552,66.66667175292969,2166.0,1.0
629.6040329,126368.453125,126477.3515625,127100.34375,126668.859375,126601.8046875,126695.6875,126880.21875,126993.9453125,0.068359375,1.003173828125,0.103271484375,-1.9836424589157104,-0.1831054538488388,0.7324218153953552,66.66667175292969,2167.0,1.0
629.6189435,125340.6328125,125449.0859375,126071.984375,125640.5,125573.5390625,125667.1484375,125851.59375,125965.3203125,0.06982421875,1.00390625,0.10400390625,-1.9226073026657104,-0.2441406100988388,0.7629393935203552,66.66667175292969,2168.0,1.0
629.6189499,125546.890625,125655.34375,126278.2421875,125846.9453125,125779.890625,125873.6796875,126058.2109375,126171.8515625,0.0703125,1.001708984375,0.10205078125,-1.9531248807907104,-0.1525878757238388,0.7629393935203552,66.66667175292969,2169.0,1.0
629.6189534,126661.6171875,126770.515625,127393.859375,126962.296875,126894.8828125,126989.1171875,127173.7421875,127287.2890625,0.06884765625,1.003173828125,0.103759765625,-1.9226073026657104,-0.1831054538488388,0.7934569716453552,66.66667175292969,2170.0,1.0
629.6215304,126651.875,126761.1328125,127384.03125,126952.4609375,126885.140625,126979.640625,127164.1796875,127277.7265625,0.0693359375,1.005126953125,0.10107421875,-1.8920897245407104,-0.1831054538488388,0.6408690810203552,66.66667175292969,2171.0,1.0
629.6240265,125599.734375,125708.453125,126331.0859375,125899.6953125,125832.3671875,125926.4296875,126110.6953125,126224.7734375,0.068603515625,1.00634765625,0.100830078125,-1.9836424589157104,-0.2441406100988388,0.5798339247703552,66.66667175292969,2172.0,1.0
629.6265312,125525.96875,125634.6015625,126257.5,125826.0234375,125758.96875,125852.9375,126037.0234375,126151.28125,0.067626953125,1.004638671875,0.101318359375,-1.9836424589157104,-0.3051757514476776,0.7629393935203552,66.66667175292969,2173.0,1.0
629.6352645,126636.3203125,126745.75,127369.09375,126937.3515625,126870.1171875,126964.4375,127148.6171875,127262.7890625,0.06884765625,1.0029296875,0.101318359375,-1.9531248807907104,-0.2746581733226776,0.6713866591453552,66.66667175292969,2174.0,1.0
629.6396024,126896.1328125,127005.8359375,127629.1796875,127196.9921875,127129.84375,127224.4375,127408.8828125,127522.5234375,0.067626953125,1.00341796875,0.104248046875,-2.044677495956421,-0.0915527269244194,0.6713866591453552,66.66667175292969,2175.0,1.0
629.6396119,125892.09375,126001.078125,126623.890625,126192.3203125,126124.90625,126219.234375,126403.9453125,126517.5859375,0.067626953125,1.00537109375,0.103515625,-2.044677495956421,-0.2136230319738388,0.7324218153953552,66.66667175292969,2176.0,1.0
629.6502672,125547.1640625,125656.0625,126278.78125,125847.390625,125780.2421875,125874.125,126059.015625,126172.5625,0.069091796875,1.0029296875,0.1025390625,-1.9531248807907104,-0.2441406100988388,0.6408690810203552,66.66667175292969,2177.0,1.0
629.660851,126581.421875,126690.5,127313.484375,126882.0078125,126814.7734375,126909.1015625,127093.6328125,127207.1796875,0.069580078125,1.0029296875,0.10107421875,-1.8920897245407104,-0.3356933295726776,0.7019042372703552,66.66667175292969,2178.0,1.0
629.6608597,127096.4921875,127205.9296875,127829.453125,127397.7109375,127330.4765625,127424.890625,127609.3359375,127722.96875,0.0693359375,1.003173828125,0.10009765625,-1.9531248807907104,-0.2136230319738388,0.7019042372703552,66.66667175292969,2179.0,1.0
629.6628008,126207.4296875,126316.421875,126939.5,126507.8359375,126440.875,126534.75,126719.2890625,126832.921875,0.068359375,1.004638671875,0.101806640625,-2.044677495956421,-0.1831054538488388,0.6103515028953552,66.66667175292969,2180.0,1.0
629.6652743,125617.6171875,125726.421875,126349.234375,125917.578125,125850.6953125,125944.7578125,126128.9296875,126242.5703125,0.070068359375,1.002685546875,0.101806640625,-2.044677495956421,-0.1220703050494194,0.7019042372703552,66.66667175292969,2181.0,1.0
629.6683618,126503.8203125,126613.1640625,127236.4140625,126804.578125,126737.6171875,126832.03125,127016.03125,127129.7578125,0.069580078125,1.00244140625,0.102294921875,-1.9226073026657104,-0.1831054538488388,0.6713866591453552,66.66667175292969,2182.0,1.0
629.6683714,127248.6640625,127357.828125,127981.4453125,127549.875,127482.1953125,127577.1484375,127761.328125,127874.9609375,0.0693359375,1.002685546875,0.103759765625,-1.9226073026657104,-0.1220703050494194,0.6103515028953552,66.66667175292969,2183.0,1.0
629.6702801,126536.09375,126645.3515625,127268.421875,126836.9453125,126769.53125,126863.9453125,127048.3046875,127162.296875,0.0693359375,1.001220703125,0.10595703125,-1.9836424589157104,-0.1525878757238388,0.6713866591453552,66.66667175292969,2184.0,1.0
629.6790092,125737.328125,125846.40625,126468.765625,126037.46875,125970.1484375,126064.5625,126248.828125,126362.5546875,0.07080078125,1.003662109375,0.103515625,-1.9531248807907104,-0.2136230319738388,0.6408690810203552,66.66667175292969,2185.0,1.0
629.6821084,126420.671875,126529.8359375,127152.9140625,126721.078125,126654.0234375,126748.703125,126932.7890625,127046.515625,0.06982421875,1.00390625,0.101806640625,-1.9226073026657104,-0.3051757514476776,0.7324218153953552,66.66667175292969,2186.0,1.0
629.6821172,127353.8125,127463.15625,128086.9453125,127654.75,127587.4296875,127682.3828125,127866.6484375,127980.5546875,0.07177734375,1.0029296875,0.101806640625,-1.9226073026657104,-0.0915527269244194,0.7019042372703552,66.66667175292969,2187.0,1.0
629.6877924,126860.1015625,126969.265625,127592.5234375,127161.1328125,127093.90625,127188.140625,127372.2265625,127485.859375,0.069091796875,1.003173828125,0.10205078125,-1.8310545682907104,-0.1831054538488388,0.7019042372703552,66.66667175292969,2188.0,1.0
629.6938654,125905.4140625,126014.4921875,126637.125,126205.8203125,126138.765625,126232.734375,126416.8203125,126530.640625,0.06884765625,1.0029296875,0.10400390625,-1.8310545682907104,-0.2746581733226776,0.7019042372703552,66.66667175292969,2189.0,1.0
629.7058523,126345.8359375,126455.265625,127078.2578125,126646.78125,126579.453125,126673.78125,126857.8671875,126971.953125,0.068603515625,1.00244140625,0.101806640625,-1.9531248807907104,-0.2136230319738388,0.7019042372703552,66.66667175292969,2190.0,1.0
629.7058607,127405.6640625,127515.0078125,128138.4453125,127707.0546875,127639.28125,127734.6796875,127918.4140625,128032.046875,0.067626953125,1.0029296875,0.098876953125,-1.9226073026657104,-0.2441406100988388,0.6103515028953552,66.66667175292969,2191.0,1.0
629.7077992,127162.7421875,127272.0,127895.5234375,127464.3125,127396.2734375,127491.3203125,127675.671875,127788.859375,0.068359375,1.00390625,0.098876953125,-1.9226073026657104,-0.2441406100988388,0.7019042372703552,66.66667175292969,2192.0,1.0
629.7102734,126126.1640625,126235.328125,126858.3125,126426.8359375,126359.6953125,126453.8359375,126638.4609375,126751.65625,0.069580078125,1.0029296875,0.099365234375,-1.9226073026657104,-0.2441406100988388,0.7324218153953552,66.66667175292969,2193.0,1.0
629.7127989,126295.2265625,126404.3046875,127027.1171875,126596.0859375,126528.7578125,126622.7265625,126807.53125,126920.71875,0.0703125,1.001708984375,0.100830078125,-2.014159917831421,-0.2136230319738388,0.7019042372703552,66.66667175292969,2194.0,1.0
629.7152752,127412.3671875,127521.625,128145.328125,127713.7578125,127646.2578125,127741.2109375,127925.5625,128039.0234375,0.06884765625,1.003173828125,0.099365234375,-1.9531248807907104,-0.1525878757238388,0.6408690810203552,66.66667175292969,2195.0,1.0
629.7190093,127437.4921875,127546.65625,128170.1875,127739.0625,127671.46875,127766.5078125,127950.5078125,128064.4140625,0.067626953125,1.00244140625,0.10205078125,-1.9836424589157104,-0.1525878757238388,0.6103515028953552,66.66667175292969,2196.0,1.0
629.72835,126388.03125,126496.9296875,127119.828125,126689.0703125,126621.5625,126715.9765625,126900.15625,127014.0625,0.0673828125,1.003662109375,0.10400390625,-1.8920897245407104,-0.2746581733226776,0.6103515028953552,66.66667175292969,2197.0,1.0
629.7283582,126278.421875,126387.5859375,127010.578125,126579.3671875,126512.0390625,126605.921875,126790.546875,126904.1796875,0.067626953125,1.005615234375,0.101806640625,-1.9226073026657104,-0.1525878757238388,0.6713866591453552,66.66667175292969,2198.0,1.0
629.7470272,127382.2421875,127491.8515625,128115.6484375,127684.2578125,127616.6640625,127711.078125,127895.078125,128009.25,0.068603515625,1.005126953125,0.100341796875,-2.014159917831421,-0.1220703050494194,0.7019042372703552,66.66667175292969,2199.0,1.0
629.7470352,127676.8359375,127786.5390625,128410.2421875,127979.03125,127911.0859375,128005.765625,128189.8515625,128303.84375,0.068603515625,1.004150390625,0.102783203125,-1.9531248807907104,-0.1525878757238388,0.7324218153953552,66.66667175292969,2200.0,1.0
629.7470388,126684.2421875,126793.765625,127416.9296875,126985.6328125,126918.0390625,127012.3671875,127196.71875,127310.265625,0.070556640625,1.00439453125,0.100341796875,-1.8615721464157104,-0.2136230319738388,0.6713866591453552,66.66667175292969,2201.0,1.0
629.7470425,126306.40625,126415.5703125,127038.46875,126607.078125,126540.0234375,126633.90625,126818.3515625,126931.71875,0.071533203125,1.003173828125,0.103759765625,-1.9226073026657104,-0.2441406100988388,0.6408690810203552,66.66667175292969,2202.0,1.0
629.7490251,127321.8046875,127431.1484375,128054.578125,127623.1953125,127555.6015625,127649.921875,127834.28125,127947.7421875,0.0693359375,1.003173828125,0.1044921875,-1.9531248807907104,-0.2136230319738388,0.6408690810203552,66.66667175292969,2203.0,1.0
629.7540167,127870.046875,127979.75,128603.453125,128171.796875,128104.46875,128198.9765625,128382.8828125,128496.875,0.069091796875,1.004150390625,0.10498046875,-1.9531248807907104,-0.2136230319738388,0.7324218153953552,66.66667175292969,2204.0,1.0
629.7565259,127001.546875,127111.15625,127734.328125,127302.7578125,127235.7890625,127329.671875,127513.7578125,127627.84375,0.068359375,1.00244140625,0.105712890625,-1.9531248807907104,-0.2746581733226776,0.7324218153953552,66.66667175292969,2205.0,1.0
629.7590266,126382.2265625,126491.4765625,127114.46875,126682.8984375,126615.9296875,126709.6328125,126893.9921875,127007.8046875,0.069091796875,1.00341796875,0.104736328125,-1.9226073026657104,-0.2441406100988388,0.8239745497703552,66.66667175292969,2206.0,1.0
629.7652645,127243.65625,127353.0078125,127976.53125,127544.9609375,127477.3671875,127572.0546875,127756.140625,127869.7734375,0.06884765625,1.00439453125,0.106201171875,-1.9226073026657104,-0.2136230319738388,0.7019042372703552,66.66667175292969,2207.0,1.0
629.7715138,128016.5859375,128126.28125,128750.1640625,128318.2421875,128250.6484375,128345.6015625,128529.6875,128643.7734375,0.06982421875,1.00341796875,0.10302734375,-1.8920897245407104,-0.0915527269244194,0.7324218153953552,66.66667175292969,2208.0,1.0
629.7777996,127330.828125,127440.625,128064.328125,127632.4921875,127564.6328125,127659.671875,127843.4921875,127957.3046875,0.068603515625,1.0048828125,0.1005859375,-1.9531248807907104,-0.1831054538488388,0.7324218153953552,66.66667175292969,2209.0,1.0
629.78028,126507.8359375,126617.09375,127240.4375,126808.6953125,126741.1953125,126835.78125,127019.6015625,127133.421875,0.069091796875,1.00439453125,0.098388671875,-2.014159917831421,-0.2441406100988388,0.7629393935203552,66.66667175292969,2210.0,1.0
629.782797,127160.5078125,127270.3046875,127893.6484375,127462.078125,127394.3125,127488.90625,127673.078125,127787.078125,0.06884765625,1.0048828125,0.096923828125,-1.8615721464157104,-0.1525878757238388,0.6408690810203552,66.66667175292969,2211.0,1.0
629.7852647,128115.1953125,128225.4375,128848.78125,128417.0390625,128349.53125,128444.484375,128628.6640625,128742.65625,0.069580078125,1.004150390625,0.10009765625,-1.8920897245407104,-0.1525878757238388,0.7019042372703552,66.66667175292969,2212.0,1.0
629.7915299,127657.34375,127766.8671875,128390.75,127958.9140625,127891.1484375,127986.0078125,128170.359375,128284.0859375,0.069091796875,1.00390625,0.1025390625,-1.9531248807907104,-0.2136230319738388,0.6713866591453552,66.66667175292969,2213.0,1.0
629.7946028,126685.3984375,126794.65625,127418.09375,126986.8828125,126919.2890625,127013.171875,127197.8828125,127311.34375,0.070068359375,1.001953125,0.10400390625,-1.9226073026657104,-0.2441406100988388,0.5798339247703552,66.66667175292969,2214.0,1.0
629.7946127,127086.8359375,127196.1875,127819.796875,127388.0546875,127320.8203125,127414.78125,127599.6796875,127713.2265625,0.0693359375,1.00244140625,0.104736328125,-1.9531248807907104,-0.2746581733226776,0.6408690810203552,66.66667175292969,2215.0,1.0
629.8077981,128158.3828125,128268.265625,128892.3203125,128460.0390625,128392.5390625,128487.4921875,128672.203125,128785.5703125,0.069580078125,1.003662109375,0.1064453125,-1.8615721464157104,-0.2441406100988388,0.6408690810203552,66.66667175292969,2216.0,1.0
629.8108504,127952.2109375,128061.734375,128685.9765625,128253.6015625,128186.453125,128281.2265625,128465.5859375,128579.1328125,0.068115234375,1.003173828125,0.10595703125,-1.8615721464157104,-0.1525878757238388,0.7324218153953552,66.66667175292969,2217.0,1.0
629.81086,126909.453125,127018.7109375,127642.1484375,127210.1328125,127143.5234375,127237.3984375,127421.84375,127535.5703125,0.069580078125,1.000732421875,0.10205078125,-1.9836424589157104,-0.2746581733226776,0.7324218153953552,66.66667175292969,2218.0,1.0
629.812792,127037.84375,127147.1875,127770.890625,127339.328125,127271.640625,127366.328125,127550.7734375,127664.5859375,0.06884765625,1.0009765625,0.103515625,-1.8615721464157104,-0.2441406100988388,0.7019042372703552,66.66667175292969,2219.0,1.0
629.8165071,128159.1875,128268.53125,128892.859375,128461.1171875,128393.1640625,128488.3828125,128672.7421875,128786.5546875,0.068115234375,1.003173828125,0.10400390625,-1.9836424589157104,-0.2746581733226776,0.6408690810203552,66.66667175292969,2220.0,1.0
629.8227976,128224.71875,128334.0703125,128958.3046875,128526.3828125,128458.7890625,128553.921875,128738.2734375,128851.46875,0.06982421875,1.00341796875,0.103759765625,-2.014159917831421,-0.2136230319738388,0.5493163466453552,66.66667175292969,2221.0,1.0
629.8295928,127177.6796875,127286.6640625,127910.453125,127478.9765625,127411.4765625,127506.0703125,127690.4296875,127803.6171875,0.0693359375,1.00439453125,0.1005859375,-2.075195074081421,-0.1831054538488388,0.5798339247703552,66.66667175292969,2222.0,1.0
629.8296014,127028.546875,127137.4453125,127761.328125,127329.578125,127261.984375,127356.9375,127541.1171875,127654.484375,0.0693359375,1.004638671875,0.10107421875,-1.9226073026657104,-0.1525878757238388,0.5493163466453552,66.66667175292969,2223.0,1.0
629.8321091,128124.046875,128233.3046875,128857.8984375,128425.53125,128357.9375,128453.3359375,128637.515625,128750.96875,0.068359375,1.005615234375,0.099365234375,-1.8615721464157104,-0.3051757514476776,0.5493163466453552,66.66667175292969,2224.0,1.0
629.8321174,128454.0546875,128563.484375,129187.9921875,128755.890625,128688.296875,128783.515625,128967.6953125,129081.0625,0.067138671875,1.00537109375,0.09765625,-1.9226073026657104,-0.2136230319738388,0.6713866591453552,66.66667175292969,2225.0,1.0
629.8452642,127475.046875,127584.296875,128208.1796875,127776.2578125,127708.9296875,127803.34375,127987.796875,128101.609375,0.06787109375,1.00390625,0.098876953125,-1.9531248807907104,-0.1831054538488388,0.6103515028953552,66.66667175292969,2226.0,1.0
629.8483485,127058.40625,127167.6640625,127791.2734375,127359.6171875,127292.4765625,127386.7109375,127570.6171875,127684.703125,0.067138671875,1.003662109375,0.100830078125,-1.9531248807907104,-0.2441406100988388,0.7324218153953552,66.66667175292969,2227.0,1.0
629.8483582,128057.53125,128167.4140625,128791.4765625,128359.640625,128292.2265625,128386.9921875,128570.90625,128684.71875,0.06884765625,1.00390625,0.09814453125,-1.9531248807907104,-0.2136230319738388,0.6713866591453552,66.66667175292969,2228.0,1.0
629.8502653,128640.1953125,128750.2578125,129374.5859375,128942.65625,128875.0703125,128970.109375,129154.46875,129268.1015625,0.06884765625,1.0048828125,0.10009765625,-1.8615721464157104,-0.2136230319738388,0.5493163466453552,66.66667175292969,2229.0,1.0
629.8565074,127793.15625,127902.859375,128526.46875,128094.6328125,128027.1328125,128121.90625,128306.3515625,128420.078125,0.068115234375,1.00244140625,0.103759765625,-1.8615721464157104,-0.1525878757238388,0.7019042372703552,66.66667175292969,2230.0,1.0
629.8627986,127139.859375,127249.5625,127872.8125,127441.25,127373.65625,127468.0703125,127652.609375,127766.3359375,0.068359375,1.001953125,0.100830078125,-1.9531248807907104,-0.2746581733226776,0.7324218153953552,66.66667175292969,2231.0,1.0
629.8696965,127975.7265625,128085.6015625,128709.21875,128277.5625,128210.0625,128305.1875,128489.3671875,128602.9140625,0.067626953125,1.00341796875,0.101318359375,-1.8920897245407104,-0.2441406100988388,0.7629393935203552,66.66667175292969,2232.0,1.0
629.8697042,128775.9140625,128886.2421875,129510.390625,129078.3828125,129010.609375,129106.1875,129290.2734375,129403.734375,0.069091796875,1.00390625,0.099365234375,-1.9836424589157104,-0.2746581733226776,0.7629393935203552,66.66667175292969,2233.0,1.0
629.872094,128118.0625,128228.1171875,128851.8203125,128419.6328125,128352.3046875,128447.2578125,128631.703125,128745.25,0.069091796875,1.001953125,0.1025390625,-1.9531248807907104,-0.2746581733226776,0.6713866591453552,66.66667175292969,2234.0,1.0
629.8721013,127271.640625,127381.1640625,128004.3359375,127572.6796875,127505.7109375,127599.9453125,127784.390625,127898.296875,0.069091796875,1.00439453125,0.105224609375,-1.9226073026657104,-0.2441406100988388,0.6713866591453552,66.66667175292969,2235.0,1.0
629.882793,127890.4296875,128000.21875,128623.4765625,128192.0,128124.765625,128219.359375,128403.4453125,128517.53125,0.068115234375,1.00439453125,0.103759765625,-1.8920897245407104,-0.2136230319738388,0.6713866591453552,66.66667175292969,2236.0,1.0
629.8870878,128863.53125,128973.859375,129597.4765625,129165.640625,129098.140625,129193.4453125,129377.359375,129491.171875,0.069091796875,1.003662109375,0.102783203125,-1.9531248807907104,-0.2136230319738388,0.7019042372703552,66.66667175292969,2237.0,1.0
629.8870944,128437.78125,128547.8359375,129171.6328125,128739.6171875,128672.3828125,128767.3359375,128951.6015625,129065.1484375,0.068359375,1.00439453125,0.104248046875,-1.9531248807907104,-0.2136230319738388,0.7019042372703552,66.66667175292969,2238.0,1.0
629.8952653,127452.0703125,127561.5,128185.203125,127753.28125,127686.2265625,127780.7265625,127964.90625,128078.0078125,0.067138671875,1.00390625,0.102294921875,-1.9836424589157104,-0.1525878757238388,0.7019042372703552,66.66667175292969,2239.0,1.0
629.8983423,127817.0234375,127926.640625,128550.5234375,128118.328125,128051.0078125,128145.953125,128330.21875,128443.234375,0.070068359375,1.00244140625,0.1005859375,-2.014159917831421,-0.2136230319738388,0.7324218153953552,66.66667175292969,2240.0,1.0
629.8983484,128902.78125,129012.7578125,129637.265625,129204.8046875,129137.390625,129232.515625,129416.875,129529.9765625,0.070068359375,1.002685546875,0.1015625,-2.014159917831421,-0.2441406100988388,0.6713866591453552,66.66667175292969,2241.0,1.0
629.9078235,128733.8984375,128843.953125,129468.28125,129036.09375,128968.6796875,129063.71875,129247.8984375,129361.3515625,0.068359375,1.00341796875,0.1005859375,-1.9531248807907104,-0.2746581733226776,0.7019042372703552,66.66667175292969,2242.0,1.0
629.9327973,127684.34375,127794.3203125,128417.75,127985.734375,127919.1328125,128013.453125,128197.6328125,128311.0,0.068359375,1.00390625,0.10009765625,-1.9836424589157104,-0.1831054538488388,0.7019042372703552,66.66667175292969,2243.0,1.0
629.9352761,127773.6640625,127883.6328125,128507.0703125,128075.7734375,128008.5390625,128102.859375,128287.0390625,128400.9453125,0.069091796875,1.00390625,0.101318359375,-1.9531248807907104,-0.2136230319738388,0.7629393935203552,66.66667175292969,2244.0,1.0
629.9377943,128896.078125,129006.046875,129630.375,129198.453125,129130.7734375,129225.6328125,129409.71875,129523.8046875,0.068603515625,1.003173828125,0.10205078125,-2.044677495956421,-0.2746581733226776,0.6713866591453552,66.66667175292969,2245.0,1.0
629.9402711,128996.0390625,129105.7421875,129730.6015625,129297.9609375,129230.7265625,129325.6796875,129509.9453125,129623.8515625,0.06640625,1.002685546875,0.099853515625,-1.9531248807907104,-0.2441406100988388,0.7629393935203552,66.66667175292969,2246.0,1.0
629.9427958,127952.2109375,128062.1796875,128685.9765625,128253.5078125,128186.2734375,128281.046875,128465.5859375,128579.3984375,0.068115234375,1.004150390625,0.098876953125,-1.9226073026657104,-0.1220703050494194,0.7629393935203552,66.66667175292969,2247.0,1.0
629.9452621,127763.2890625,127873.3515625,128497.0546875,128064.953125,127997.453125,128092.3984375,128276.7578125,128390.484375,0.06884765625,1.004638671875,0.097900390625,-1.9226073026657104,-0.1525878757238388,0.6713866591453552,66.66667175292969,2248.0,1.0
629.9477926,128850.9296875,128961.5234375,129585.671875,129153.484375,129085.796875,129181.015625,129365.2890625,129479.015625,0.0693359375,1.002685546875,0.100341796875,-2.014159917831421,-0.2136230319738388,0.7019042372703552,66.66667175292969,2249.0,1.0
629.9502765,129219.2890625,129329.703125,129954.03125,129522.1953125,129454.15625,129549.640625,129733.9140625,129847.3671875,0.06787109375,1.001953125,0.103515625,-1.9226073026657104,-0.1220703050494194,0.6713866591453552,66.66667175292969,2250.0,1.0
629.9529903,128252.8828125,128363.3046875,128987.09375,128555.53125,128487.4921875,128582.7109375,128766.8828125,128880.5234375,0.06591796875,1.0029296875,0.103759765625,-1.8920897245407104,-0.1831054538488388,0.6408690810203552,66.66667175292969,2251.0,1.0
629.9552654,127800.3984375,127910.8125,128534.0703125,128102.59375,128034.9140625,128129.859375,128314.0390625,128427.6796875,0.067626953125,1.00439453125,0.1025390625,-1.9226073026657104,-0.0915527269244194,0.5798339247703552,66.66667175292969,2252.0,1.0
629.9577977,128778.421875,128888.8359375,129512.71875,129080.703125,129013.109375,129108.328125,129292.6875,129406.4140625,0.069091796875,1.00390625,0.10205078125,-2.044677495956421,-0.1525878757238388,0.6103515028953552,66.66667175292969,2253.0,1.0
629.9608623,129395.6875,129506.28125,130130.5234375,129697.96875,129630.375,129725.953125,129910.046875,130023.765625,0.069091796875,1.00390625,0.100830078125,-1.9836424589157104,-0.1525878757238388,0.7324218153953552,66.66667175292969,2254.0,1.0
629.9608702,128573.5859375,128684.1875,129308.2421875,128876.0546875,128808.4609375,128903.6796875,129087.5859375,129201.40625,0.0703125,1.004150390625,0.1005859375,-1.8920897245407104,-0.1220703050494194,0.6713866591453552,66.66667175292969,2255.0,1.0
629.9627997,127889.4453125,127999.5078125,128623.1171875,128191.4609375,128123.6953125,128218.640625,128402.9140625,128516.546875,0.0693359375,1.003662109375,0.1005859375,-1.7700194120407104,-0.1831054538488388,0.7019042372703552,66.66667175292969,2256.0,1.0
629.9652648,128697.5078125,128807.65625,129431.984375,128999.8828125,128932.109375,129027.1484375,129211.5078125,129325.4140625,0.0693359375,1.00537109375,0.10302734375,-1.9226073026657104,-0.1525878757238388,0.7324218153953552,66.66667175292969,2257.0,1.0
629.9720906,129525.328125,129635.65625,130260.4296875,129828.234375,129760.46875,129855.859375,130040.0390625,130153.6796875,0.0693359375,1.005859375,0.10302734375,-1.9226073026657104,-0.1220703050494194,0.6103515028953552,66.66667175292969,2258.0,1.0
629.9720999,128895.71875,129005.6953125,129630.203125,129197.828125,129130.59375,129225.6328125,129409.8125,129523.359375,0.06787109375,1.003173828125,0.10107421875,-1.9836424589157104,-0.0610351525247097,0.7019042372703552,66.66667175292969,2259.0,1.0
629.9740217,128022.5703125,128132.09375,128755.890625,128323.6953125,128256.8203125,128351.4140625,128535.59375,128649.3125,0.06640625,1.00439453125,0.101806640625,-1.9531248807907104,-0.1831054538488388,0.7019042372703552,66.66667175292969,2260.0,1.0
629.9827992,128606.84375,128716.7265625,129340.703125,128908.59375,128841.453125,128936.3984375,129120.3125,129234.0390625,0.067626953125,1.00390625,0.10107421875,-1.9531248807907104,-0.1525878757238388,0.6713866591453552,66.66667175292969,2261.0,1.0
629.989591,129601.9453125,129712.2734375,130337.0546875,129904.6796875,129836.90625,129932.9296875,130116.5703125,130229.9453125,0.06689453125,1.00390625,0.102783203125,-1.9531248807907104,-0.0915527269244194,0.6713866591453552,66.66667175292969,2262.0,1.0
629.9895994,129211.1484375,129321.2109375,129945.8984375,129513.703125,129446.203125,129541.59375,129725.59375,129838.875,0.069091796875,1.003662109375,0.1025390625,-1.9531248807907104,-0.1220703050494194,0.6408690810203552,66.66667175292969,2263.0,1.0
629.9920919,128213.546875,128322.8046875,128947.578125,128515.65625,128448.1484375,128542.921875,128727.1875,128841.0078125,0.068603515625,1.00244140625,0.101318359375,-1.8920897245407104,-0.1525878757238388,0.7324218153953552,66.66667175292969,2264.0,1.0
629.9920992,128540.5078125,128650.390625,129275.078125,128843.1484375,128775.2890625,128870.421875,129054.421875,129168.6796875,0.068115234375,1.0029296875,0.10498046875,-1.9836424589157104,-0.1220703050494194,0.6713866591453552,66.66667175292969,2265.0,1.0
629.997814,129634.3984375,129744.8203125,130369.328125,129937.3984375,129869.1875,129965.03125,130148.9375,130262.578125,0.068359375,1.00244140625,0.10400390625,-1.9226073026657104,-0.1831054538488388,0.7019042372703552,66.66667175292969,2266.0,1.0
630.0158507,129503.328125,129613.5703125,130237.8984375,129806.15625,129737.7578125,129833.6015625,130017.421875,130131.4140625,0.069091796875,1.002197265625,0.1025390625,-1.9531248807907104,-0.1831054538488388,0.7019042372703552,66.66667175292969,2267.0,1.0
630.0158594,128451.0078125,128560.359375,129184.6875,128752.8515625,128685.2578125,128780.3828125,128964.5625,129078.46875,0.070556640625,1.00244140625,0.103515625,-1.9836424589157104,-0.2441406100988388,0.7324218153953552,66.66667175292969,2268.0,1.0
630.0177905,128499.5625,128608.8125,129233.4140625,128801.3984375,128733.8984375,128828.84375,129013.203125,129126.75,0.070556640625,1.0029296875,0.105712890625,-1.9226073026657104,-0.2441406100988388,0.7324218153953552,66.66667175292969,2269.0,1.0
630.0202567,129619.921875,129730.25,130355.0234375,129922.7421875,129854.96875,129950.2734375,130134.8125,130248.625,0.068359375,1.00341796875,0.10302734375,-1.9226073026657104,-0.2441406100988388,0.6408690810203552,66.66667175292969,2270.0,1.0
630.0252705,129759.0390625,129869.453125,130494.5,130061.6796875,129994.171875,130089.9296875,130273.9296875,130387.921875,0.067626953125,1.001708984375,0.102783203125,-1.8615721464157104,-0.3051757514476776,0.6713866591453552,66.66667175292969,2271.0,1.0
630.0277967,128724.0625,128834.03125,129458.71875,129026.078125,128958.75,129054.0625,129238.2421875,129351.875,0.06787109375,1.001953125,0.10302734375,-1.9836424589157104,-0.2441406100988388,0.6103515028953552,66.66667175292969,2272.0,1.0
630.0302641,128495.359375,128604.96875,129229.03125,128797.109375,128729.6953125,128824.640625,129009.265625,129122.6328125,0.069091796875,1.001953125,0.102783203125,-2.014159917831421,-0.2136230319738388,0.7019042372703552,66.66667175292969,2273.0,1.0
630.0327917,129570.2109375,129680.1796875,130304.953125,129872.9375,129804.71875,129900.4765625,130084.390625,130198.3828125,0.070068359375,1.001953125,0.102294921875,-1.8615721464157104,-0.1831054538488388,0.6713866591453552,66.66667175292969,2274.0,1.0
630.0396065,129977.28125,130087.6953125,130712.46875,130280.453125,130212.421875,130308.3515625,130492.0859375,130605.8984375,0.06982421875,1.0029296875,0.1025390625,-1.8310545682907104,-0.1831054538488388,0.6713866591453552,66.66667175292969,2275.0,1.0
630.0396147,129027.6875,129138.015625,129762.1640625,129330.1484375,129262.6484375,129358.1328125,129542.3125,129655.59375,0.069580078125,1.003173828125,0.10400390625,-2.014159917831421,-0.2441406100988388,0.6408690810203552,66.66667175292969,2276.0,1.0
630.0477955,128537.5546875,128647.53125,129271.9453125,128839.75,128772.0703125,128867.2890625,129051.734375,129165.1953125,0.068115234375,1.003173828125,0.101318359375,-1.9531248807907104,-0.2441406100988388,0.7324218153953552,66.66667175292969,2277.0,1.0
630.0508366,129497.96875,129608.203125,130233.1640625,129800.875,129732.75,129828.6796875,130012.7734375,130126.3203125,0.0693359375,1.003173828125,0.101318359375,-2.014159917831421,-0.1831054538488388,0.7324218153953552,66.66667175292969,2278.0,1.0
630.0508441,130144.203125,130254.53125,130879.75,130447.734375,130379.4296875,130475.0078125,130659.3671875,130772.8203125,0.06884765625,1.00537109375,0.103271484375,-1.9531248807907104,-0.2136230319738388,0.6408690810203552,66.66667175292969,2279.0,1.0
630.0590062,129345.078125,129455.2265625,130079.9140625,129647.6328125,129580.0390625,129675.3515625,129859.6171875,129973.1640625,0.0703125,1.00439453125,0.104248046875,-1.9531248807907104,-0.1525878757238388,0.6713866591453552,66.66667175292969,2280.0,1.0
630.0633504,128632.328125,128741.9453125,129365.8203125,128933.8125,128866.3984375,128961.6171875,129146.0625,129259.7890625,0.068115234375,1.00244140625,0.102294921875,-2.014159917831421,-0.1525878757238388,0.6408690810203552,66.66667175292969,2281.0,1.0
630.0633587,129413.5703125,129523.71875,130148.2265625,129716.03125,129648.4375,129744.015625,129928.015625,130041.921875,0.069580078125,1.003173828125,0.102294921875,-1.9836424589157104,-0.1220703050494194,0.7019042372703552,66.66667175292969,2282.0,1.0
630.0715165,130269.3671875,130380.328125,131005.640625,130572.7265625,130504.9609375,130600.890625,130785.0703125,130898.796875,0.0673828125,1.00244140625,0.105712890625,-1.8920897245407104,-0.1220703050494194,0.7629393935203552,66.66667175292969,2283.0,1.0
630.074585,129671.0625,129781.4765625,130406.703125,129973.703125,129906.375,130002.046875,130186.046875,130299.59375,0.0693359375,1.0,0.104736328125,-1.8615721464157104,-0.1831054538488388,0.6408690810203552,66.66667175292969,2284.0,1.0
630.0745914,128773.3203125,128883.4765625,129507.890625,129075.4296875,129008.1953125,129103.1484375,129287.7734375,129401.3203125,0.068603515625,1.0029296875,0.103759765625,-1.9531248807907104,-0.2441406100988388,0.6408690810203552,66.66667175292969,2285.0,1.0
630.0827946,129323.0,129433.5078125,130057.5625,129625.28125,129557.9609375,129653.265625,129837.53125,129951.171875,0.068359375,1.004638671875,0.10302734375,-2.014159917831421,-0.2746581733226776,0.6103515028953552,66.66667175292969,2286.0,1.0
630.1001886,130333.8359375,130444.515625,131069.203125,130636.8359375,130569.0625,130664.90625,130849.0859375,130962.71875,0.06884765625,1.00439453125,0.100341796875,-1.9836424589157104,-0.2136230319738388,0.7019042372703552,66.66667175292969,2287.0,1.0
630.1001977,129977.9921875,130088.234375,130713.09375,130281.0859375,130213.046875,130308.53125,130492.9765625,130606.4375,0.067626953125,1.0029296875,0.105224609375,-1.9226073026657104,-0.1525878757238388,0.7019042372703552,66.66667175292969,2288.0,1.0
630.1002019,128970.2890625,129080.2578125,129704.5859375,129272.390625,129204.625,129299.9296875,129484.46875,129598.1015625,0.069091796875,1.00390625,0.101806640625,-1.9531248807907104,-0.2441406100988388,0.7629393935203552,66.66667175292969,2289.0,1.0
630.1030373,129258.4453125,129369.0390625,129993.3671875,129561.265625,129493.5,129588.71875,129773.0703125,129886.796875,0.068603515625,1.00537109375,0.101806640625,-1.9531248807907104,-0.1831054538488388,0.6408690810203552,66.66667175292969,2290.0,1.0
630.1052613,130360.296875,130471.0703125,131095.765625,130663.7421875,130595.5234375,130691.640625,130875.546875,130989.453125,0.06689453125,1.005615234375,0.099609375,-1.8920897245407104,-0.2441406100988388,0.7629393935203552,66.66667175292969,2291.0,1.0
630.10779,130265.8828125,130376.2109375,131000.984375,130568.796875,130500.7578125,130596.9609375,130780.6875,130894.4140625,0.06787109375,1.00439453125,0.10205078125,-1.9226073026657104,-0.1525878757238388,0.7324218153953552,66.66667175292969,2292.0,1.0
630.110268,129212.671875,129322.640625,129947.328125,129515.1328125,129447.359375,129542.7578125,129726.7578125,129840.6640625,0.069091796875,1.0048828125,0.1044921875,-1.9226073026657104,-0.0915527269244194,0.7324218153953552,66.66667175292969,2293.0,1.0
630.1144601,129222.6796875,129333.0078125,129957.609375,129525.4140625,129457.640625,129553.21875,129737.21875,129850.859375,0.069580078125,1.003662109375,0.102294921875,-1.9531248807907104,-0.1525878757238388,0.6713866591453552,66.66667175292969,2294.0,1.0
630.1144684,130341.609375,130452.2109375,131077.515625,130644.7890625,130577.0234375,130673.0390625,130857.21875,130970.5,0.06884765625,1.003662109375,0.103759765625,-1.9226073026657104,-0.2136230319738388,0.7019042372703552,66.66667175292969,2295.0,1.0
630.1240129,130517.03125,130627.7109375,131253.109375,130820.5625,130752.703125,130848.3671875,131032.90625,131146.1875,0.070068359375,1.003173828125,0.103759765625,-1.8920897245407104,-0.1831054538488388,0.6713866591453552,66.66667175292969,2296.0,1.0
630.127092,129486.609375,129596.9375,130221.625,129789.2578125,129721.84375,129817.0625,130001.2421875,130114.875,0.070068359375,1.0029296875,0.102783203125,-1.9226073026657104,-0.2746581733226776,0.6713866591453552,66.66667175292969,2297.0,1.0
630.1270996,129222.7734375,129332.7421875,129957.609375,129525.234375,129457.640625,129552.953125,129737.3984375,129850.859375,0.06884765625,1.00244140625,0.104736328125,-1.9531248807907104,-0.2441406100988388,0.6408690810203552,66.66667175292969,2298.0,1.0
630.12902,130286.4453125,130396.8671875,131022.0859375,130589.5390625,130521.6796875,130617.609375,130801.7890625,130915.515625,0.068603515625,1.003173828125,0.1025390625,-1.8920897245407104,-0.2441406100988388,0.6408690810203552,66.66667175292969,2299.0,1.0
630.1427942,130725.1640625,130835.8515625,131461.4375,131028.5234375,130960.9296875,131056.6875,131240.953125,131354.765625,0.069580078125,1.004150390625,0.10205078125,-1.8920897245407104,-0.2441406100988388,0.7019042372703552,66.66667175292969,2300.0,1.0
630.1458377,129792.6484375,129903.25,130528.2890625,130095.921875,130028.2421875,130123.7265625,130307.6328125,130421.6328125,0.070556640625,1.004638671875,0.099853515625,-1.8310545682907104,-0.1525878757238388,0.7324218153953552,66.66667175292969,2301.0,1.0
630.145846,129271.40625,129381.109375,130006.0703125,129573.875,129506.28125,129601.5859375,129785.5,129899.4921875,0.0693359375,1.00537109375,0.1025390625,-1.7395018339157104,-0.0915527269244194,0.7629393935203552,66.66667175292969,2302.0,1.0
630.1483467,130208.125,130318.09375,130943.140625,130510.859375,130443.1796875,130539.109375,130722.9296875,130836.9296875,0.0693359375,1.0048828125,0.102783203125,-1.8920897245407104,-0.2441406100988388,0.7324218153953552,66.66667175292969,2303.0,1.0
